Time,AF3,F7,F3,FC5,T7,P7,O1,O2,P8,T8,FC6,F4,F8,AF4
0,0.083093951022593,-6.7412092817297,-3.35092955291496,-4.08265654141122,-3.7347862086459,-1.47773870484825,-7.19354439522919,23.7465817680484,-1.18925862403241,4.78774661932678,8.66221098125914,26.0350863471003,-78.318760117477,5.40203128090566
0.0078082298742875,4.57851011542079,-4.22175241832638,-4.96165185630546,0.475058755334084,-1.26251774646481,-1.25306638734336,-11.1162390783041,23.6547696342594,-9.45358150096265,2.44393677626342,6.67464975536802,44.122692777154,-155.839122971481,3.73279414406484
0.015616459748575,4.65572054175135,0.515717850876803,-2.34767811954246,6.26021035617179,2.33719951294224,-1.31550117986198,-10.5026698186606,11.7149407615787,-16.9756438025984,-0.897219520168597,4.04527334393004,28.7261511816951,-120.042995652145,5.80825839272207
0.0234246896228625,1.54549009588954,-1.07923956041241,-4.38778024375663,2.37708481257743,1.84551149986545,-4.77558704869743,-15.3453202321738,4.67982790376009,-21.9854609260115,-6.84196357812195,0.3992286127899,23.251770688531,-110.752117356247,3.01488480797475
0.03123291949715,0.423346350467173,-3.07081080799008,-6.38376002967582,-1.6314649372738,0.338966075404089,-8.38390919225212,-20.4993872716635,-0.905731941210614,-25.0167643317732,-13.7850420960358,-8.33228536426088,24.3265196814509,-138.839397629684,-4.6041685558253
0.0390411493714375,-0.526765277111562,-1.73068751220608,-3.97504692733512,2.70612343257255,1.00513142727177,-7.87408157842155,-16.7992816045493,-8.37619426344572,-26.1443259009871,-15.2535737046173,-15.1387505131867,14.9146506323786,-132.367748459762,-5.96109666594798
0.046849379245725,-5.25593011590246,-3.21856643085385,-3.09477716148124,3.40852673953361,0.58058029793064,-4.90744110600944,-10.1719880178183,-5.45930364226042,-23.84683292003,-11.4754822739533,-12.7172731953766,13.8705260291072,-119.190677842086,-2.75066133508021
0.0546576091200125,-10.8080498478055,-5.94442297344113,-4.45772152602897,-4.32214013630563,-1.67535036422451,-3.20253368871208,-7.41333866860566,5.73660156632723,-20.2436796912703,-9.55254774178773,-7.43543096362612,24.4305998816462,-127.868122300094,-7.20744862326915
0.0624658389943,-15.0246717235685,-6.35508943920041,-4.50392776191459,-9.04125706249886,-2.53068321563442,-3.16728517072197,-7.03160286690888,8.13887331391634,-19.204332996324,-10.6348727234772,-6.25502200900575,23.1747576727839,-123.971744736618,-17.0755793071681
0.0702740688685875,-21.1592923900724,-11.5257232320776,-5.57404714286552,-9.96364323193246,-2.0365884862109,-2.40547200696464,-7.55342150475678,5.17857715989412,-16.5930697211775,-8.9248545655182,-5.44122000514528,15.5868765845271,-112.083889206832,-20.4129501796656
0.078082298742875,-23.9022905132413,-19.03467632656,-7.23019605338798,-12.3070842414539,-1.64775484420498,-1.3256030942678,-8.58490324761567,9.48447296525301,-9.223505664781,-3.9742918499878,-3.32772787391207,19.3853423132868,-118.360698899215,-18.9672667003565
0.0858905286171625,-17.1699630519986,-15.450770152854,-5.6449542588018,-11.1535627036732,-1.76766687251766,-2.8605620528936,-7.78504038598237,16.1990248909122,-4.05578200908032,0.61248428736419,-2.08758648215792,22.9048411383601,-117.885540207809,-19.1550003505641
0.09369875849145,-11.2616249820829,-5.77011801128293,-5.00271897971854,-6.45185534054452,-2.87250512458523,-6.90071865575309,-7.44590950753388,16.7058312645084,-4.15306727977124,4.19519205008239,-0.205565531840533,17.2724177374812,-102.382267197555,-16.1870705104762
0.101506988365737,-16.5712339183927,-6.18053890590573,-9.43429809272514,-6.75635687405282,-3.33913486816128,-8.71875950353141,-9.57334662224946,13.1389691581851,-3.68090264888135,5.72121448431701,1.26365951717833,16.5783869757624,-98.6388513650356,-9.24869551429087
0.109315218240025,-23.8630983135343,-12.7991988790503,-14.4423986023687,-9.21129051739388,-1.62022190906246,-6.51963182942863,-10.8940520360678,4.41964838410677,-6.31902997584668,0.536388229472345,-5.03477688609621,19.0905119910212,-103.061260422653,-10.952930114358
0.117123448114312,-26.7960664531827,-14.8919284475317,-17.8697496002935,-9.15401474529916,-1.65271490432461,-3.59750672833915,-9.90535021569428,-6.23952462767302,-16.7033793220076,-9.50099496926575,-15.2432398396637,10.9729706778498,-102.571499070114,-23.6405178523951
0.1249316779886,-31.1264058849454,-15.3070027959814,-19.9602056092046,-11.5050784736317,-4.74167030669888,-2.59978195683952,-8.71145296837983,-5.71112659071623,-21.8074309119734,-15.1788542756012,-17.2979912358429,-0.123790310385635,-106.365566452926,-33.0946079708033
0.132739907862888,-33.2567159435392,-16.644560588645,-16.8757157868169,-14.1514751105946,-4.89330595351895,-2.43175384061332,-6.60662365700898,5.35640213395418,-12.6438032874617,-12.7233975418976,-13.6442999440338,0.0309422745676728,-108.504253586715,-33.7456737972193
0.140548137737175,-28.0759336254239,-15.856978191184,-11.1921334809087,-10.4825145393055,-1.24728923656185,-1.78121313111778,-4.07938481118378,10.7073361625797,-3.12292640300122,-7.61124401177674,-14.4660963612702,6.37376947545726,-99.2170908059535,-33.0871254421168
0.148356367611462,-29.1770993969083,-15.9830577505102,-11.6069903916143,-8.34014193112069,-0.330210540370542,-1.41374537007804,-3.6013150289267,9.90648147965731,-2.93354671092358,-5.43850689019471,-15.7337698537018,10.3294169440242,-96.1214716042934,-33.9230057216578
0.15616459748575,-42.0241300365568,-17.331494106101,-14.8472648209356,-12.3325168281239,-2.7383045516177,-2.11717149274345,-2.4190104081839,12.8293645134097,-4.4858028182539,-6.46365623559266,-11.5860018330719,10.7958333029719,-100.906406601852,-34.7323719478541
0.163972827360037,-46.5546209118009,-12.6160133016577,-12.1080718582891,-11.5430223136585,-4.10141604758938,-2.28825947301384,1.35350906107726,15.7625052681095,-3.47307770343152,-6.40751199807435,-7.14451356708071,9.27106542730052,-93.6131326760707,-35.5501629329615
0.171781057234325,-35.5039254924894,-4.17173458461667,-6.70753341377006,-5.38495461041146,-3.66740387298306,-0.266350057291942,2.35488461706939,14.6148030510074,-1.38862435908642,-2.95806198205262,-2.94955559550783,10.4688174262019,-78.3467065896449,-33.0425163722926
0.179589287108612,-27.7930528423429,-1.42133702163601,-5.54672246635185,-4.59500972325021,-1.6275331339999,0.94192251904015,-2.13952685143647,13.8532922020084,0.833835493609041,-3.10883860673218,1.66604761303404,14.3743063940974,-74.2331506814418,-28.9832703090602
0.1873975169829,-32.204933335507,-2.59413911228085,-8.54698091209159,-6.47969166332894,0.82984239242832,-1.96030637280937,-7.12876702096161,9.63299915696443,-2.44979231448498,-11.2964909562042,-4.12538023768923,9.25029821538646,-79.4390527810512,-34.0583244777613
0.195205746857187,-37.7692815563321,-1.86991967086697,-14.6002231186651,-4.72490326458627,-0.544651057498056,-6.04351564900871,-9.58359099175629,-1.8608603725308,-10.9352404365095,-16.2581666001251,-19.0846962529328,-5.49035625314992,-84.9787866677699,-45.5448185420924
0.203013976731475,-39.5532399913907,-2.88194538478756,-20.6376157349371,-5.52736631924325,-4.4562537036105,-6.79210754888053,-8.97712946679291,-6.75000026320158,-10.7663666495833,-9.8462355622223,-22.694261987796,-11.4669049248723,-86.118580063766,-48.1340443111354
0.210822206605762,-41.1733114025236,-8.63933922176266,-20.9116426056646,-10.1902391105335,-4.50006645538052,-5.19686314122673,-5.00246811654267,1.44633129741014,-1.6039007195982,-4.08348350610047,-16.4029812413361,-5.05740074968617,-84.7189294900356,-44.9134670711451
0.21863043648005,-42.762586762631,-13.8131759298315,-17.4972081726812,-11.2144319205921,-2.70207541801174,-2.81164022939201,-0.120190270206304,9.53307316209139,1.3476773014513,-4.93339328851014,-17.9108795720246,-0.402690695288589,-85.2970010842738,-45.5675426937037
0.226438666354337,-39.8037969371915,-12.8402059209814,-16.1592774933599,-8.69710175091439,-4.31186598159512,0.33057653499846,2.5008566305429,11.8389174690372,-0.490257430985838,-0.890039149778182,-17.7166313725617,3.45665903234203,-79.960605820602,-38.2615772701197
0.234246896228625,-29.6797887584806,-7.30801559810544,-14.4427629059576,-7.5120784431141,-5.2750202975436,1.72828260405068,4.00925516341033,14.0587441673404,2.85221273808154,6.20865268622131,-4.05574937640688,14.1264998450251,-63.3505327310024,-18.5688988185816
0.242055126102912,-16.4453431865812,-3.57601095561886,-10.4945216721319,-7.26702181393319,-2.02578073360165,0.0939558256984184,5.30853223059478,11.5868766060001,3.51675064472827,1.4215411654541,1.99443606556395,19.1677176489802,-56.6257440652309,-8.73275818595225
0.2498633559772,-6.61402075501684,-3.8578663003912,-9.45580821693168,-6.71591059261971,0.00839263580600574,-0.716319885420757,4.60229205344024,2.34663090611757,-1.79374246688214,-7.83714132394105,-5.54694052516481,12.6703125967952,-63.9734575356899,-11.0019098735743
0.257671585851487,3.0351384380221,-1.42458922986889,-9.97171168983207,-3.56914941364938,-1.20608496286114,0.119804206919713,-0.00380038466152752,-2.69318225477873,-0.70024983973828,-5.6766045578888,-2.33172764359972,10.7317349448176,-56.1888238992153,-0.97693338164622
0.265479815725775,17.4378622272372,6.74502538318729,-5.11957174003349,3.76770385211295,-1.15945744134625,-0.722943689990001,-7.49050665642914,-1.66371848677336,3.49571306614551,-1.48745911206513,6.67083601177672,15.1906935706111,-39.3098451699672,17.3231071018285
0.273288045600062,29.356424162662,12.5617372858057,2.85422653496041,9.78619655078239,0.986860219462317,-1.91989919202323,-10.9993624761313,-3.58443286513029,-1.4233747014555,-6.22413616265565,0.0521059435699289,13.227522565362,-42.7360002602992,21.1124766849584
0.28109627547435,33.8395517566561,12.1235773431787,7.21412891685738,10.7016428322155,3.04494887970249,-0.816436257529216,-5.96500540520844,-5.73842122648893,-4.59557120890942,-6.99660997475892,-1.8122257954534,14.9747035040827,-45.7779543008266,21.4441875003881
0.288904505348637,37.7542513110995,11.9614422189722,7.77560753166451,11.762088617738,4.40391141556064,-0.169177439379649,-2.05046845223603,-1.765385414111,4.19811422733936,2.50289411459655,16.898059408078,29.2432734503718,-25.6780759896694,35.3345836185521
0.296712735222925,41.5715578296542,14.9715740549097,6.49381536781564,15.255888781007,3.59891134880344,-1.26466366307731,-7.30728626992402,2.4874574890262,9.34911568073901,6.86789770041198,21.3510508936737,32.6327521338435,-18.4934618081508,42.5097468875951
0.304520965097212,41.2010286548495,19.1472103464136,5.16668409645333,19.0306290001232,0.534940544588965,-0.936885442900615,-8.85322428490815,2.31247231866182,3.54668910412464,0.798821758372491,-0.0665720301773245,17.1869341864558,-36.8615648354945,29.5074580692357
0.3123291949715,43.7449930408358,24.1599647867212,7.03460544883981,22.9097755760509,-0.868993218915064,0.200021726694746,1.30653917048278,1.19875291491808,2.11828107742938,-3.4611139782837,-7.48963781177065,11.058429433343,-41.4400865640102,21.2065089725561
0.320137424845787,49.0971201160311,25.1290619241724,9.86826366722359,21.1894672722179,1.34294778488437,-0.122334238457637,7.45436190817657,0.963699256432666,8.54842502979907,-1.03088918711453,6.87732843578795,18.2143637671443,-28.5288068856654,29.4556659244603
0.327945654720075,45.8481767871737,18.9307072031031,7.88449711143746,11.9108446449596,5.88491470001499,-0.0345247502803376,3.121456377247,1.15871385241808,10.1443732490984,1.8124820700714,10.1590943735931,15.0520617499324,-26.5578615273891,33.4669993900365
0.335753884594362,42.0431154468417,17.062060581399,4.68064398109689,10.9606560081798,11.4843309559659,1.07794657690529,3.13915347311798,1.88416657353701,6.69890100865039,2.49976320181579,4.35549787701109,9.62709016942699,-26.0086519326625,29.4943965457982
0.34356211446865,51.5077951648593,25.7018730508814,6.83291096031441,22.8062847465832,13.6804140248136,0.182575586867375,6.76393317435089,0.587341285673393,7.43585235981616,3.5506903639862,12.9759202402923,21.0103308691951,-13.3985855187831,34.8860324405736
0.351370344342937,56.8315904834628,29.0729992258081,8.96069092094674,24.575598558839,7.79150087021152,-1.94293376462455,0.13290647421184,-1.76128318403898,11.1644109001604,6.09667081747741,23.8738189143036,29.8769995703669,-6.16372605223039,43.6317332767553
0.359178574217225,45.7723482349276,21.0547897684107,5.49311823189034,13.2036798805553,0.373910252077978,-1.97310921208854,-9.13546610619721,-2.74628498648344,10.2153228035417,6.29761428747863,16.7719073695038,18.4029833807917,-9.22458525556901,37.7386401676244
0.366986804091512,42.6889627673983,18.1724426614771,4.25431389152779,12.634174189027,1.40608972690861,-0.222423401045757,-7.04486990716157,-6.94140985106169,4.90042621998462,-0.243835378544623,4.40592054546812,7.93616838597972,-9.88168450254777,28.1393836521215
0.3747950339658,52.4796198108554,20.7374946939478,8.48128742515816,18.116671404298,5.53210574768345,1.24726680262093,-1.60679841782746,-14.2408192405575,2.78529078869495,-9.01692705239564,3.12727169216612,11.9884554877253,-9.54894133467057,30.5665477298803
0.382603263840087,42.5711725452304,9.98144744510746,5.86213487922921,5.3615434974987,0.975888554079932,1.81468752367501,-1.20191932465729,-12.5267679939145,7.0694664230791,-9.48044710244447,6.06447509945372,14.2792489066096,-11.2836381997524,29.0691226505346
0.390411493714375,15.1790922382235,-6.26005293254757,-5.25778346717582,-11.2104818015736,-7.27036016799648,0.944327208828969,0.794556848743586,-2.13990380858122,12.0045064201799,-1.46586172665864,3.33605198086241,8.10984678411205,-11.6549217309413,11.4340156101293
0.398219723588662,10.339650938785,-2.76753474597836,-5.80127483070121,-4.06255666310006,-5.42152803756436,-1.11468621747489,5.10886286948028,2.84386465455355,13.5689233055559,4.21567602072448,-0.224624117007464,5.990473939416,-13.4294139947353,1.53183255425161
0.40602795346295,28.1367529132723,12.4093887674341,10.2546362334467,13.2062242836315,4.5720403828458,-1.887558903861,5.89756774161163,4.03364488984407,14.9649728050676,3.43216771994323,4.98946384609678,14.1379668250056,-10.6042158212123,14.9181560062475
0.413836183337237,34.6201036670565,13.9555389749536,22.5457910948969,15.8788669914562,9.6651390232877,1.18855730040078,6.46182059500518,10.8712756385929,16.8152440300432,3.3053724280426,17.7399878901336,27.4543234839411,5.38298729997298,28.9098819278783
0.421644413211525,28.6962640979647,7.93328021640872,19.6895098143794,10.2672203392345,7.26025420807163,6.88703587992196,9.47337197516265,14.191878055585,16.3064263573137,7.13111276541442,25.8673072260711,35.0573470129939,18.6467264090123,26.7285445713109
0.429452643085812,29.4299524524569,11.4522058832178,14.6896662169672,10.0100134224255,3.42294794700901,8.92549708826546,8.64657735083404,5.17820570374788,15.1713031044451,6.83656282339782,22.1894393366669,28.6244532599421,13.6756961737218,20.8066752933568
0.4372608729601,30.4248216846347,13.6147863733301,15.1892427855708,11.167772135194,-0.312863182203371,3.83868339998726,3.47636222098174,-4.24959971998869,13.7208894005266,-2.20765738572388,12.6933198374603,16.1144949927302,5.97673348527572,19.4301017307348
0.445069102834387,21.3820608356356,2.78697656269168,12.307657664416,6.22327693408317,-3.39345210410793,-1.80175754086967,0.153755481393663,-5.63043382261931,7.71533520130786,-9.75383977975159,5.45507530392149,11.3704545035334,7.01384524446151,16.5152667545385
0.452877332708675,13.5640524127841,-4.5557844770422,4.49495596229806,-2.82017604405099,-2.9370567164584,-1.45480820195671,-0.764664538165899,-5.53191497420012,1.80107290653858,-6.50157575692444,3.50242284954527,12.3920075430842,6.84081153016707,11.4605830692357
0.460685562582962,14.6291883685946,2.8837530481348,2.26889366447701,-6.29253403240853,-1.57800858833035,0.207911170237554,-1.47697509076295,-6.38493611906706,5.04929573444995,0.39018113527984,7.52329496563414,12.5241915717097,4.4707248602452,7.80142531624502
0.46849379245725,16.2310732105136,9.02771018619632,8.21988624870553,1.30001362269706,-2.2092073521777,-0.790106263327556,-0.254344440957876,-3.22446134184538,13.2845166435686,4.17463941488952,15.8007388514374,16.8519217505427,10.1206396017613,8.04060397377675
0.476302022331537,15.0562284686923,3.71628497715091,13.570108836291,9.49949534838981,1.35527497909824,0.881632599663777,2.7662866041452,4.54163215066256,17.7640870323625,10.2210499754974,23.2783694666717,26.5826003088923,20.9563043509068,14.9558814548559
0.484110252205825,12.9166010120272,-2.40460456733609,11.5678591185786,5.38406213229484,9.17250520370762,5.60648063166146,4.47184132788482,13.3338868370181,19.7955220451799,16.5915925017425,24.4671111506317,30.5496413245173,25.5496881399693,19.3362659000463
0.491918482080112,5.92576486853358,-3.97978521709347,4.01112884819283,-4.2446474223774,8.31680661819736,5.74278453333382,4.14439939711395,16.3511235466129,19.5471795311418,11.8372122756073,15.8637233179901,22.432377530572,19.2914998922887,7.83317122688955
0.4997267119544,-3.9080052873731,-5.85409428005124,-1.64260184228645,-6.7573210387867,-1.13742732621868,2.87516573412423,3.75675272200408,9.55403206254305,12.5992835274187,0.381722759349054,2.55360225857237,9.31580133580882,8.67238597016951,-7.61028208503062
0.507534941828687,-5.72422187539342,-5.56697918300534,-0.68667876184211,-4.78146235043221,-2.41029327727993,5.28483537180428,5.17864512656036,1.84739527608217,4.0178580990282,-3.30329232301026,-3.33560546218416,1.70755858564098,4.8501136694493,-8.82996048697764
0.515343171702975,-0.576624085629018,0.00584004993533616,2.35226053535714,-3.64613620335274,5.13550597809116,9.82620624048714,8.22946595404449,2.85265490914644,2.97610766796741,-0.406281013148123,-0.65717860042116,3.08903761052806,7.06260184388778,-7.36615290412242
0.523151401577262,-0.355699469769033,3.17472790355777,0.815658991930626,-1.16249773794823,5.90256196640293,7.35551074488167,9.18498849127593,4.61158296967806,6.79869253544483,0.549976181132501,-1.487111945739,4.95125646733958,5.75078562837264,-16.2382856822901
0.53095963145155,-7.22786610337499,-1.31320424203778,-5.50644212424979,-1.1587248235386,-0.478237148301203,0.134659621548695,4.88749026511016,-3.08608319853483,6.47644979862842,-1.26450910057336,-8.95380588351747,-3.64863281107228,2.46424321275374,-23.1182686305934
0.538767861325837,-17.0505258342862,-7.42506863002682,-13.9806266373418,-9.26989952618294,-2.95670836784084,-2.67975780026908,-1.62777412678895,-14.8431046256894,-1.14210789294568,-7.20127897347718,-15.1555533009674,-20.2635586724309,2.40633753877303,-23.9979855037623
0.546576091200125,-28.6049844524503,-9.27939583187008,-20.7298360413335,-16.0516502051991,-1.13275920964916,-0.593327608275371,-4.58320666100678,-21.7808954963559,-10.7506758460554,-15.3375151642731,-17.6614279347565,-31.0146954522161,0.573905268722982,-29.5110393978053
0.554384321074412,-34.6873628399015,-6.93791796092892,-18.9373307770513,-10.6968471198719,1.88649231575291,-0.379508521723705,-2.33124542977509,-21.0695498237485,-11.5426861533674,-12.9380944260529,-15.9319109517243,-27.0852635369329,0.82418183427474,-31.7639042354518
0.5621925509487,-29.6361409923673,-3.23327971820736,-9.80006271064506,-1.69384590679818,6.55669051788608,-2.51151987569328,1.45652198050323,-12.0432055244321,-0.980073500588804,0.408072184664911,-7.66964813052675,-14.4717743859319,11.6460130606236,-22.3982197261744
0.570000780822987,-27.1680242321134,-4.25093056087399,-5.92626290977226,-2.82266966396981,7.25233012817661,-0.419194903540569,2.94906639311614,0.186932837021961,7.98985512165698,5.78820485983581,-1.35899384795687,-8.74882202005666,18.4241254721226,-19.1747595287257
0.577809010697275,-37.7178746959806,-13.3070762289038,-10.5145621842168,-11.8197623878162,0.418788734896582,5.0808396671534,3.96761631224456,7.05222580338777,7.59985000996265,-1.5627214797905,-6.94227548419496,-14.2548163399724,6.64310244660994,-29.6613861537867
0.585617240571563,-45.1188833019376,-21.2329108846655,-11.5122190064214,-17.2050353675526,-4.41427009917935,5.99269441111092,9.3107075617105,9.51836941148104,6.83023817448291,-5.95150833215027,-14.5816549855377,-14.5457146630315,-4.18537350553849,-33.8006264186793
0.59342547044585,-37.2313863536954,-16.6260364187231,-5.16966062247977,-13.7914888053577,-1.63472908355435,3.837876353097,15.7676501199991,11.2258822670108,8.9072726479021,-2.55453329171448,-11.7009310322907,-1.81400293267052,2.58939055543563,-25.1525494075709
0.601233700320137,-28.4925748607755,-6.18307138805295,-1.1703574790083,-5.67420450741463,0.514536622984808,5.79923251612191,14.8187336847574,7.85939571763338,5.52835590748462,0.287301968676751,-6.3388256627228,4.72134418630321,10.626329222733,-18.8171583629542
0.609041930194425,-28.7639714977384,-6.82428242092038,-2.34986191451774,-1.35187015825921,-2.55887764312466,6.82575658304696,7.72733830664459,-0.634531284319745,-1.38440458865491,0.956097554309076,-10.3376545506622,-5.55614762163441,7.38263968568465,-20.0306545711451
0.616850160068712,-29.8474237224698,-17.2759769094458,-3.234861904981,-4.87402121121102,-5.84572952605923,1.03756073458199,3.32387112829986,-5.38319327925383,-2.88741247744885,1.63334889326782,-19.1418785649445,-14.1496422753362,3.18844822984359,-23.3355041957789
0.624658389943,-29.1100179454923,-19.0079124105444,-2.93309586704002,-9.28749004894906,-6.26154344894131,-2.37744375722404,2.60218381140533,-5.73027875517546,-1.74557583422986,0.624973844630426,-22.5413326817658,-11.3043749794988,3.41134337525985,-25.9427811122828
0.632466619817287,-30.0583154461027,-9.24566055660153,-2.42101102531181,-7.71362797314339,-4.65618246413906,1.25599888308053,1.68482159827056,-7.98954608534514,-2.7425019034895,-1.67753743018418,-18.7975792485382,-11.1175396904973,3.30457285981795,-25.2989727474147
0.640274849691575,-30.3803312084318,-6.165583862113,-1.54698976338134,-6.61068312222176,-3.19872706748684,1.47940579397683,1.27778529379669,-10.5821755180234,-2.38089649768201,-3.69303445901185,-15.1249937611725,-18.389981554511,3.18931845765731,-23.1490818477564
0.648083079565862,-32.9415590068937,-15.3203284872046,-4.76192193687186,-13.4053975730579,-5.03356664993008,-2.46578117864128,1.15735756609741,-9.70244243239103,-0.770269680932432,-5.8294513710907,-18.7043175297882,-22.3574841485051,3.28370265107772,-26.8184334255152
0.65589130944015,-43.2751981517911,-21.9856650960913,-12.8322911804937,-20.5781432777088,-8.01170175887783,0.158833536934895,-0.292065568229528,-7.96261813734709,-1.04259471984234,-5.49877910699158,-24.4684471684601,-21.3566449151067,1.29151372056624,-35.0227009273463
0.663699539314437,-51.8662053844571,-20.9932906759253,-15.8390355652593,-20.1432906776112,-6.45893781997402,6.14719441874032,1.53328191492858,-6.30440976713835,0.3128850719181,-0.905368927972609,-21.6917004185822,-21.1685040459661,0.742103615814657,-39.6232868648463
0.671507769188725,-49.4370252391935,-20.2915713918676,-11.2563329285406,-17.9925243049305,-3.1451649031802,5.76091483576302,7.8795256540567,-3.3788857707852,3.55798203854236,2.23123998556823,-15.1486506062653,-21.5852501854924,5.34542636018416,-39.5494877315455
0.679315999063012,-45.1966192028165,-18.1504943502417,-9.88032012641654,-17.4377872138661,-3.80590790130337,3.57950690729622,9.12385415289703,-2.60887816046415,2.75467116741809,0.439264606578058,-17.4829258519318,-20.9722264275579,9.83608225923201,-36.7845150447779
0.6871242289373,-44.9907476207853,-9.71237350826168,-12.0377870148443,-11.3699323325794,-4.23256319381436,5.25878957254891,3.78720306608978,-5.17974450682341,0.621856700464815,-1.03943901147156,-23.6015972691681,-19.9717648491887,9.84053687196395,-30.8573357082301
0.694932458811587,-39.7446882030607,-3.723445190238,-7.73963504493461,-2.37346724564248,-0.832154508606989,5.10412505609993,2.39729856703582,-6.8973753700131,1.83427734284076,-0.122492123501593,-21.3752293187287,-19.4542649254827,8.81057147126815,-25.0534035182887
0.702740688685875,-30.2263891002775,-7.43207956676388,-3.28859143913017,-3.27348629528695,-0.907382961289484,0.818684372735066,2.81576894972625,-9.85669543837248,-0.731423784211546,-1.01563193287163,-16.213494737735,-22.538247393134,9.87608222108504,-23.7272373653346
0.710548918560162,-28.4252511760831,-13.8410327566137,-10.6785808151983,-12.3972827582996,-7.11664169646938,-2.77042147176261,-6.3112030103415,-19.2782137641781,-9.38054244609204,-3.07596569146424,-17.779358347049,-29.3666413292913,10.7791774664464,-25.3827358699732
0.71835714843445,-32.1960984966398,-16.4383208883276,-18.1018682068609,-16.0803033500355,-10.2730666957064,-4.3541173602819,-17.0635199620932,-27.4043047675961,-12.3617083320173,-1.46980660046845,-20.0846485692169,-32.0822899804143,11.3135373983922,-25.7217689968043
0.726165378308737,-30.5869867107511,-16.2438800466528,-10.3201852387212,-13.1879083305042,-6.60711782790859,-4.43878551976676,-13.9761090352744,-23.5627081642026,-7.24132077784863,2.621427249057,-16.7421755391266,-28.0213921532659,14.8056848440709,-22.8650833583766
0.733973608183025,-27.9247228405118,-15.6907909048071,-1.00998411536441,-13.4733440070789,-3.25827592231472,-2.7010423804998,-3.7726824357718,-14.2583983192319,-4.90558545680371,4.0144731513092,-14.6148714619782,-26.0788205132512,18.8586309347691,-21.1841465450221
0.741781838057312,-34.4856321117521,-17.6865584981909,-7.77846246421561,-18.1319553046864,-4.02180379249294,-2.02352711217399,-0.950654514095159,-11.5732624778622,-7.67013661952344,0.892195533854669,-19.0448498326447,-30.0219376549749,15.319745818192,-27.5910984493189
0.7495900679316,-43.7575856945157,-20.7035052907934,-18.811974102857,-20.0732623725575,-5.22767704345425,-3.10799666898246,-2.16900897767243,-12.5079052696103,-9.4247996100935,-5.09634094323426,-24.6031345921662,-31.7059796319036,4.9230649862828,-36.676993987649
0.757398297805887,-42.2755758068204,-18.0499732625952,-15.8975806778692,-16.851008573119,-4.17982643462856,-1.68167957322593,0.856359295585779,-9.98761775587736,-8.58796947093335,-10.2127841004303,-26.5731472569611,-27.8045380578069,-0.293054064696818,-36.1620823360377
0.765206527680175,-33.1946050426603,-13.3615872991552,-6.40831952750907,-12.6531669288319,-2.23693126060208,1.64420572264199,4.8324384615213,-8.2450602302426,-6.42903249354687,-10.9687703141144,-26.887470682254,-26.2949116692571,4.9662459288182,-31.9030033565455
0.773014757554462,-29.4437028667569,-15.8569820058813,-7.1357703751348,-10.3302976279896,-1.3815329632922,1.86177566988472,4.41546582434478,-11.6131184348935,-7.43932359309521,-10.6934912690094,-28.3454117375519,-31.6624711022405,11.2063281927647,-37.6030613399439
0.78082298742875,-31.0909826061368,-17.4587600362768,-15.0745854920171,-7.80954281384164,-1.21527206517895,-0.21084373848434,0.717479340770868,-15.137389446246,-16.724030185655,-15.1885159501007,-30.6027111607697,-36.9402344689397,9.06679610353133,-45.2438580013209
0.788631217303037,-28.5583116314054,-7.60483671550656,-14.9291902130865,-3.48342625195199,-0.00113240994651959,-1.09648891942497,-2.5256679132193,-15.7566244850033,-24.7234617957625,-18.5403178223541,-29.7915958958771,-36.2327797875432,4.39277056794784,-40.7675472713404
0.796439447177325,-20.9114667675138,1.53447102184391,-6.57556825340018,-0.215988883320625,1.02452618263523,-1.56161042706962,-2.73764277245698,-15.8886263618344,-18.0298048743757,-10.7222407349518,-22.341162164798,-33.4443963036565,9.60119132142684,-30.6505886531764
0.804247677051612,-14.7329932949186,-0.944770826148038,-5.07951455772147,-0.386155912224586,-0.775632437245447,-2.62869259374137,-1.37458050992188,-14.9201185951108,-6.54835908503857,1.15109844122619,-12.1229385930206,-31.7759850487737,22.9065206442418,-24.2793613887721
0.8120559069259,-12.2101127407193,-3.95515300159359,-13.0787435120367,-2.22773484284096,-3.09275692321499,-3.40401002423759,-2.24399257447419,-12.0005076179379,-5.38689487071362,3.77320165549011,-6.59120603381655,-27.3411019310979,30.4652631674351,-17.9027563548976
0.819864136800187,-9.78678052636388,-1.4758091104498,-15.9134088104986,-3.43917695576363,-2.43861668922146,-3.79009815709587,-3.99930287148652,-10.0418389091366,-5.99078004451123,2.55800766859741,-3.93372412501833,-20.2458069787053,32.8520887289586,-9.4435330844813
0.827672366674475,-2.09898512574437,-1.2944598925581,-9.30946689307914,-2.95711199337655,-1.43956833697994,-3.70071765439506,-2.67486620690522,-7.62900188063322,0.0299555024352967,7.18366451178283,2.84316877544859,-15.9947474465398,42.3725088034215,-1.33029606112773
0.835480596548762,10.7580288150668,-1.8868733776083,-4.62233977973685,-0.927100399081047,-2.50367825843533,-2.8236910964727,0.194210100957779,-0.727430010783063,2.13584477810535,9.8537795058319,11.1280122202728,-12.8286850914983,53.4410665426793,7.93671260109609
0.84328882642305,19.0720957019686,1.2781051265726,-4.15373092353568,0.27924980824775,-2.23037379600247,-2.07090636746879,1.28306006644073,4.2118911495334,-1.67284135909405,4.23652238760681,13.8078561228607,-6.75928859567921,52.527374068314,16.4461482547826
0.851097056297337,18.7442186572909,1.95421599025821,-1.33180583477245,-0.133030453268821,-0.28472359843691,-1.83643576161857,0.901742689350275,-1.95041015242277,-1.36340301127759,-0.200981248276526,12.6400094431732,-3.8534141049413,49.0095289145055,18.8879989170141
0.858905286171625,21.151273558414,1.25568770046329,1.01101917564645,1.10932823127097,-0.674109484927255,-1.9314472343206,-0.367309637328955,-12.5603716621274,-0.494323123410612,0.751237701518243,12.0060363215301,-7.81042795038502,54.5939176474156,18.8422130130834
0.866713516045912,30.3871095874667,7.70008014316654,-0.115710908772804,4.5798986763317,-1.13517033673962,-2.34194823758598,-1.61445558812317,-13.3338740119809,-4.45092742534009,2.39574427519531,12.2313857477997,-8.2137063012151,59.3910787497105,23.69415698281
0.8745217459202,35.2413423755526,14.2343218194971,2.43498725235238,7.65865405505485,3.10782820366184,-1.42904397504325,-0.992785580417486,-4.38198211287199,-3.91862742991772,7.73493451986999,16.3219199580047,1.67152304792125,60.8372991476597,33.127277710349
0.882329975794487,36.2518442371249,12.8002045022974,9.55415672600045,11.9126251549084,8.6153000035123,0.796838793587727,-0.327322877904745,2.41817543412508,2.62314755825672,17.2295510283539,25.4055476588104,13.0272118582698,69.7897909079137,42.1024211429662
0.890138205668775,43.1994913318514,14.9075996744165,13.9122862273432,19.1006687492687,11.0133226551847,0.305542174410863,-1.66367066647706,2.46907732392611,4.67472727207813,20.1035096160004,30.4523120325897,17.627180768487,76.5468099508824,45.4111827396459
0.897946435543062,46.6079309680819,24.9715015756617,16.5789961272456,24.5632999748547,12.70871144913,-1.37143382089134,-1.75522089745698,1.71486220265688,3.83367974667224,16.6429516783783,27.638631383786,18.4245936408015,67.9442480001988,40.8497050785131
0.90575466541735,34.9653986194491,27.1493942605982,20.514779513476,24.3136185020763,14.1917617955045,2.69527414782052,0.437528125980524,3.16634437943758,5.57415277866992,17.7514111510345,25.6556239527557,18.5620829596492,60.6726301107945,33.0235255741186
0.913562895291637,21.8666952350497,18.3999817239771,19.9224771910883,19.548800310548,11.4830978550748,8.15054563028817,1.6339224502832,2.29785892869295,3.38392598538074,18.5740906706879,24.068074743161,14.5135504736872,64.0702169333043,25.9807876133031
0.921371125165925,19.893253157413,13.5573656427393,13.8417753630854,13.1369293541271,5.11814147613804,5.07932713968758,3.09557842467132,-1.55794169996916,-2.85402338595715,9.70910806570739,14.0347476404999,5.52143020772655,58.0992277060094,18.5010741733617
0.929179355040212,20.9237459400057,14.4310486185083,9.89463180839791,10.1331604332287,-0.0185348949595277,0.738685223889394,6.02477168295684,-1.4778688201779,-3.62158005328503,0.782670449359124,3.9622283381317,0.365404678818771,42.217071333939,13.576237060935
0.9369875849145,20.3947981098056,12.5902902948389,9.99810451805367,12.4154470772106,-0.768856760041315,6.82653859598641,5.66381501410308,3.70100972558321,-1.92250220866528,0.586121987445062,6.55556444347838,4.98436947011668,39.6436918173375,15.4694293521947
0.944795814788787,22.2801874378085,11.4606973993311,11.7051748687006,12.4085462898571,2.9322744049863,13.2819662426234,2.79870413992706,6.14047071839632,-4.79546516032544,1.05514831457824,11.2288470667694,11.0002543463679,46.3390996847691,18.944660522849
0.952604044663075,23.2810667255282,15.8478596078882,15.3336443358637,8.05670913165397,6.8511422314481,7.743384871316,3.41715740416351,4.22244594003023,-5.07513969035473,0.273441385371393,7.74864248455504,10.8606860175105,44.7284849081578,20.9449866794652
0.960412274537362,22.7030790546298,19.1907608377466,18.6029886656977,9.89091762011832,6.72463018081943,1.58623078806405,3.78793954108062,4.0189995517856,1.5167012920824,6.28330345068664,8.84012178600767,11.2462784781428,42.9138524923863,26.5246718906469
0.96822050441165,26.5163667896151,18.2026970254908,18.3526243621088,17.1615837425548,6.02993899963657,5.9175563190699,-0.499005086681219,5.15888616944612,5.68577606587085,13.6459004393646,18.0843863886688,15.4160277380915,47.0983083639683,30.7504161380834
0.976028734285937,31.0857752063632,18.5123722421656,17.31390899956,16.1795433372814,8.05828363083164,9.2436724041224,-1.70488250996766,3.29253766442598,4.20525057224903,11.2472216597626,19.1174922388885,16.2891985907527,43.8414228354039,25.5614799045629
0.983836964160225,31.3208788135409,20.6460773813257,18.1785730773188,9.79544051593131,6.84070140503208,3.49331477625374,2.6732256338388,1.40113911534609,4.29686481861743,6.55395002279968,14.798522512326,17.975611402032,37.4976995382847,23.210457184226
0.991645194034512,33.128282377994,20.2255375253687,19.5415548735835,11.3578289360363,0.739342872126501,-0.476299252676921,2.78050708029571,2.27312455083193,7.73957188038501,11.909887026889,22.5925326746795,28.0453669562312,43.8037374411168,34.1008075260228
0.9994534239088,36.3896463611483,19.101964222146,20.2634138518549,16.7182968468029,-1.36896401263912,1.54512408716683,-1.16773808743653,2.31866810227694,9.96932155995044,19.9494816771576,32.1624560755585,32.7335097327204,48.8390233908238,40.9768413089818
1.00726165378309,34.7789285877108,21.1433422433863,20.031251376269,17.3524196953136,1.82174712799351,0.45513181729321,1.08528976891342,3.18720862771334,9.38774521259937,16.9403836241791,25.9812293452118,22.8186804785701,36.2827642355504,33.5105289005346
1.01506988365737,34.005895445621,23.5083534585962,20.4059652739741,17.9790390343029,2.66423923157017,-2.23692294614311,7.35806988928619,10.5909440269596,8.23032123951587,6.6591355315277,19.7160430353973,18.2685305609675,26.0155961905064,30.6395038150853
1.02287811353166,35.7642801502108,22.138060795022,22.5383810454585,18.7700165123302,1.61353892467777,2.49396518213753,8.3151192590982,17.6937234153873,7.80761177448902,1.18616611872405,26.6946959894989,25.9546076788874,31.8265798483433,36.9367984317846
1.03068634340595,26.6039541461825,18.3123867380152,18.8446649962641,13.1939762443859,2.4884234108762,8.45582297785286,5.34891461584869,13.5233800163394,5.63064892201099,0.889197777850335,25.9398951929901,21.9959857001277,29.7514493856969,29.8300441288061
1.03849457328024,10.1563518741488,14.3305103647242,5.38472313225045,7.22791799014396,2.12188798569004,5.09496596796517,3.50943683836761,5.05215427781404,0.613671403214067,0.119619738204187,10.3268886011932,4.97158785009105,10.5598590765538,11.430048324973
1.04630280315452,7.41925222662684,10.3732511865625,-2.39359253108726,7.71250613635368,0.392178658469122,-0.871582474875408,1.40992724154296,5.27367184068026,-1.77991538138714,-0.333891440289313,5.40422252834776,1.52940197133739,1.79596833329818,9.76754317513173
1.05411103302881,14.2681978443026,8.1562893259058,4.02130073845162,7.15383895343131,1.59075791023533,0.276035207939191,-1.51724792267975,8.75421020890535,0.575009923264116,0.567524980647271,13.3291030329559,9.86374254369457,10.1824348364415,20.101456024558
1.0619192629031,10.0101583698153,9.8054363595972,7.25227875053658,3.06887300914115,3.29171067856113,2.91508177263741,-2.11830187585053,4.88058683778109,0.551843892618746,-0.105446446793372,9.10518697918394,6.62987775945384,8.92582205873153,13.4424918674535
1.06972749277739,-2.00033800812963,11.5667192804346,0.258047526476524,2.86098392909354,2.47224241874973,0.286675993037266,-1.09228492524323,-0.144044245230542,-3.72243063540784,-1.87325053300172,-4.23130508243105,-3.67820601320546,-5.60555668730119,-3.78146042594248
1.07753572265167,-8.87680213662389,6.56125377292728,-1.83607613504157,2.02445419734306,1.81305939338962,-3.08976956861015,-2.64345837380585,1.06869599725069,-5.76595561595288,-4.59740786637574,-7.31275554477236,-5.77307729578297,-12.0736238564906,-7.77581896552378
1.08534395252596,-15.3197175762296,-4.15421248798275,0.0220186167932968,-7.48559538418465,0.247071955426138,-3.22477385060783,-5.66395474221406,1.60051236058535,-5.54319255442944,-11.7398703583649,-7.21329303561708,-6.00420312738698,-11.4948370065151,-8.51206221350962
1.09315218240025,-23.4802781841398,-10.2015988958349,-5.09687262237296,-14.7389642387074,-3.78387826301296,-2.20092388646598,-4.20730067040619,-0.0687664995068176,-6.05250089259472,-16.5115025528839,-10.9864115315582,-7.76129655695241,-15.5931627358852,-18.6355244136744
1.10096041227454,-23.4086686870694,-5.00597359065915,-5.21396403968559,-8.0637027412098,-4.02029293395718,-0.633685913252788,1.25948297236267,6.50898144151033,-3.68939654918042,-7.80027942742615,-4.86351247607729,-0.441026137831619,-15.1825067605434,-18.6122805095606
1.10876864214882,-17.5095073482633,5.2190277444849,6.70832437813058,2.29996355479545,0.757314745409888,1.12463316662316,2.9607503340036,17.9894501915103,0.23197842000398,3.46002359305114,6.13108448208311,10.244916631219,-8.04714222807267,-4.42068066367442
1.11657687202311,-17.0293504497648,10.4289762842188,10.2235025817133,3.8200691551525,2.48515636108677,0.60996777160172,0.128449397200374,18.7287537803775,-1.25815217585889,-1.37591593350678,1.16509823025206,8.79478807592113,-12.6051284875331,-3.98218252429301
1.1243851018974,-18.6302549144864,9.67743896122074,0.340683763620995,1.31521161502189,0.49650943659107,-0.771732475924449,0.340094782450823,10.0032574882633,-4.08687131495801,-14.0693409928253,-11.3146977025177,0.791950179574082,-27.124330719894,-17.6207901454859
1.13219333177169,-16.0919486782193,7.54003833408451,-3.66034131705985,1.24579592650718,-0.0262165776654069,-0.0497277046918442,3.53209971640411,4.32363817597689,-2.03656952472058,-17.1121867188385,-14.3852533894684,-2.98858527994435,-31.6336309518276,-19.9776073909693
1.14000156164597,-16.6263667842985,3.5810186731348,-2.67687063873039,-1.09747366005593,-0.548034932391245,0.088532354366822,2.26897072050872,1.4749670376903,-2.54840104670849,-15.1450579651764,-18.204220255008,-9.1281407341985,-30.19678326506,-18.1199718929225
1.14780979152026,-22.6519948742032,-3.4628365171423,-10.4475417679571,-8.3280054717701,-2.164503391759,-2.29512163655754,-2.76893091942963,-2.01735928152739,-8.88766925425854,-17.0566275605133,-26.4783100682404,-19.3850605950383,-35.4075738992153,-29.1963898158961
1.15561802139455,-23.653902222836,-7.95445181255246,-18.4401441162847,-13.1610681205433,-2.23878210403164,-2.97462579267021,-5.10209227349457,-1.86475470160185,-9.68538158030835,-17.4062598236969,-22.4502987462189,-21.1725018487005,-37.1028329934535,-35.8994480586939
1.16342625126884,-19.7318307659269,-6.55926586513424,-16.5477986878179,-11.2782756477039,-2.94379347182949,-0.74019303576942,-4.16653776910004,0.589329635155811,-2.71815769763318,-13.3425610550812,-11.103634317508,-15.2652342782048,-30.2873060311733,-28.3977772212916
1.17123448114313,-23.8198758861661,-5.58330561046505,-14.1648679322027,-8.63672462994271,-5.06953256942471,0.229751666691942,-2.46383858468232,1.11055502797426,0.174654989339143,-9.5408738144806,-11.9551586705353,-14.966174410346,-29.5616399850307,-29.3011185146266
1.17904271101741,-34.5729390880704,-8.25602079753781,-15.3367705887579,-10.6447364478748,-4.03518455840786,-0.48341288821693,-0.695714242717596,5.00805256272615,-2.71491425128308,-6.14668684090882,-17.4200357991364,-17.2497275338201,-34.859359940475,-40.0986668086939
1.1868509408917,-36.3620969555021,-8.94950653438473,-13.0099082535528,-13.7162229209583,-2.14805274821957,-0.424947526621776,0.285733364561228,12.1418330421573,-2.14583389849988,-3.16014390076905,-13.8945602971222,-11.8029873833684,-32.8551122750697,-36.4733463741236
1.19465917076599,-26.9245855114103,-6.78994585399533,-9.81332927406059,-11.9144975333851,-3.8589407763644,-0.637508359122234,0.3379454091579,11.0337359657413,1.11021078734073,-4.55541353310853,-11.9946007329132,-6.67102126932423,-29.0817663278041,-22.5546471095973
1.20246740064027,-18.8991815349698,-6.83462978725338,-11.5089793747686,-6.16742197567635,-3.91535061217983,-1.89596911923881,-0.477782852908941,2.7667555561191,-2.37267606349316,-10.2797787674835,-19.3941635686066,-12.0656722054509,-34.1724550332485,-20.8264061428004
1.21027563051456,-16.6206170818448,-7.16124035243893,-13.3756661957525,-2.73278919750863,-0.864504452721674,-2.10984202878471,-3.4085831716269,-0.541083122240887,-11.4648062476667,-17.0220797547272,-25.2755226689484,-18.5067418084173,-39.6933595742641,-27.206218383401
1.21808386038885,-13.1450149318815,-3.83440281276608,-11.1764684265874,-3.30936018521004,-1.6061595044299,-1.07115050809379,-5.45262051369843,0.809591715586795,-13.7552401313337,-20.8058703431061,-23.5480694371369,-15.2249024376897,-37.0114214028774,-25.2328411556178
1.22589209026314,-6.05256192895177,-1.44884295587445,-7.74103456199393,-1.73784665161782,-3.36623757697781,-0.218210783171611,-2.2095708921164,1.57781813050569,-6.04694001765576,-16.3477938660553,-17.6464123326447,-7.36485128259938,-33.1570703591762,-15.2375103450709
1.23370032013742,-0.624721219265493,-3.12347008113766,-5.79879193961845,3.6693294853527,-0.984888490216333,-0.0120468850612214,0.408456049898295,3.3123037567264,-1.02134435267773,-7.68258791054993,-11.70481725513,-2.90546326494496,-34.7444421853481,-6.9448143459254
1.24150855001171,-0.429034163677724,-4.24023081188107,-6.96284108817802,3.0232752174694,-2.86212056495388,-1.66455790059562,-5.14703417565522,2.11907873059572,-5.46221940608349,-7.30864410485535,-11.9557060795929,-3.99936179971974,-38.1232149209438,-6.7318061805659
1.249316779886,-2.60732357712987,-3.97272564296628,-10.8165765351079,-7.2133175521534,-11.0024959407016,-4.69093128697868,-11.475809581539,-4.08744409178434,-8.60347812266675,-13.3484261521271,-16.9537329274323,-9.1254609093694,-37.6617319192348,-11.1483746982508
1.25712500976029,-1.31782739373449,-4.6637208593359,-11.7129293030523,-12.5126926093739,-11.5019208750888,-4.64269825475212,-8.06718207146821,-1.10242440794645,-3.19623892398205,-12.0506699570587,-13.9604134160187,-9.32270364618581,-33.3876115884242,-7.52955832251841
1.26493323963457,4.24376709250209,-2.94256974582577,-6.48847346961723,-3.91773358875924,-2.71453302718838,-1.23879012124534,0.475558571556238,14.8646647682315,2.83095343022022,-4.0128021725586,-2.91789336978456,1.91564126157481,-30.4770376290736,5.44147048226064
1.27274146950886,6.86058122900721,0.995924459649081,-0.884799534680702,5.34481128161735,1.67067248009006,-0.412133243250804,3.53418039534393,22.6412789573795,3.47127444653186,0.145949672801202,0.946805517086775,11.5792634024592,-30.8206159676967,12.9105075382299
1.28054969938315,2.13048631933924,-0.157270355271344,-0.197515899541237,4.07868226474113,-0.620804574267465,-2.56088992612358,0.302256308534769,15.1541201820499,1.34492010979328,-0.187926996605689,-3.09801467238924,6.69619817876537,-29.6574689950404,11.7824719928808
1.28835792925744,-2.38881128045324,-4.46515823726559,-1.1052208489202,0.570270261223977,-1.94088941432675,-2.05314942853447,-1.99084568764863,11.2663285484439,-0.881570268586546,-0.174109567063147,-0.691199620356768,0.877055121895859,-24.776186188644,14.3396037601537
1.29616615913172,1.38707525519129,-4.56040169124508,1.36167735397591,2.45738180583305,-1.3286879620715,0.541048589777989,0.547028921583323,16.5616338005191,0.93489260582599,2.22809142981262,9.50568155468443,9.11838026189525,-19.2303793038783,22.3999599002904
1.30397438900601,8.71404154089686,-6.23379017238522,4.87986749946847,3.90950234835929,-1.21195655681332,0.596609327626271,2.98799561713043,18.7095372429019,8.67821915058765,7.05323476706237,14.6598887842987,18.2579543127986,-14.6518776025234,28.3944362186498
1.3117826188803,11.8700617053866,-14.9266374242773,4.10907739937081,0.893106064255898,-3.18335479118069,-0.671809163260417,0.620418272951273,17.2747666587955,11.9147122612444,8.73227758322448,9.98669199169615,14.2992198004695,-13.0433713998256,31.5465167545385
1.31959084875459,13.9781187274813,-19.2943542135229,1.13187760650887,-1.75679210716897,-7.87516039230068,-0.691413190531688,-2.00461889054474,18.3902394523746,4.07566912083301,3.56268854056091,4.8595443171356,9.15214510106761,-15.8194305505214,33.4665263675756
1.32739907862887,20.0598772266268,-14.0328471792212,2.54521602928414,-0.823782408181961,-9.19215887405117,-0.957928981947856,-1.68151021744904,17.9105393638736,-1.42556409926739,1.28981943045348,7.79481939495543,14.5122878088923,-16.0246870126186,34.7856143497533
1.33520730850316,24.828010390079,-10.9852750432959,7.3803896361567,1.7187679619152,-2.48745482780178,-1.46313282506462,-2.86503053452668,15.3907458534366,5.35149843601856,8.57667131338805,13.9137616556976,21.5811659827204,-8.6625029649196,38.4054645084447
1.34301553837745,22.6512926319003,-11.847402347373,9.67427200615182,3.83587392276115,3.56943828247349,-0.639261272120433,-2.97592473771271,18.9699322929508,14.0362199058977,15.2159897795746,14.3604445856903,23.0833365454646,-3.12186547178605,41.3971599124975
1.35082376825174,17.7705095508456,-6.79892708187008,9.35426563560738,4.60244019931144,2.03194862983982,-0.300982024836498,4.97950648520294,26.6942345848209,15.8814900627581,14.2358433714935,11.7750211161468,24.7818800940486,-6.47264452833512,36.7674182437963
1.35863199812602,13.4812410571932,-1.26031078224087,8.79899734794869,3.35315044825858,-0.37431920685013,-1.22098895566459,13.2281908914835,28.6825005760318,13.7183984032122,10.25322408591,11.8750691813324,27.3688628210993,-11.3106395806728,28.1408504032201
1.36644022800031,6.34539682654139,-4.79709459667111,7.08319896995797,1.1368290991146,0.263206396325033,-0.497211244273143,12.0432448313028,25.2313515892154,8.47671253590259,4.11006994162292,10.682841817746,23.7188822760554,-12.4987451638637,23.0365088962621
1.3742484578746,-1.3172625801206,-7.86410118465329,5.11550897896065,0.564192017968361,-0.362648066060144,1.31840506536965,8.93993424628082,22.9757535209781,1.62486774830493,-3.19358282174378,5.84629730404356,16.351401044366,-13.5232851113735,19.0164645694799
1.38205668774889,-2.78451376172307,-3.4802298677435,4.59158796608224,1.69787558024711,-1.47032767154415,0.585412088465733,9.8635868952066,22.5785805931217,-0.624104488805205,-4.08996396149903,2.89209560574034,15.0709406866999,-14.6638500298915,13.0054572605199
1.38986491762317,-2.56335388633016,-4.20362950687314,2.71219367325082,0.685075125153725,-0.31793121613701,-1.66727670686241,8.22231148932281,21.4707066764957,0.099142063244909,-0.420852739470298,1.55207900227049,17.6246783270808,-14.3573667611537,8.07844195595449
1.39767314749746,-8.34116332741979,-13.8616244924536,-0.838824266793587,-3.81538454586678,0.252113107664984,-1.95233580129142,4.35025309775176,18.8979623069888,-2.20145003886548,-1.11455823864251,-2.33879848300478,13.3999392523738,-14.6969501580653,4.09745011559194
1.40548137737175,-13.3548795482755,-17.4399821889868,-1.48653703391776,-6.96803251797372,-0.423025693671304,-0.753564801382976,2.81385492537322,14.9346587410098,-3.22340147586194,-2.88329629983216,-4.90118475734255,4.26892013692577,-16.03232308287,-0.327631614296977
1.41328960724604,-9.02216928216222,-10.7169902456274,-0.174963051678993,-5.31456915432626,-0.288176182584364,-0.868792977499919,-2.19507504250702,10.5037123909122,0.833710979506105,-0.308509577172095,-3.14755137740633,0.175601436135361,-16.6734335030971,-0.631502530663554
1.42109783712032,-1.73505537720922,-5.34447218303586,-1.15464148879276,-1.50655571514779,-0.918256875054437,-3.45995780484672,-10.7547850682944,6.25971147919954,2.46910006909046,1.00631410990447,-1.53637625752947,-1.21912734365742,-16.0590107049403,4.33056054344838
1.42890606699461,0.254033873355357,-4.50725675945187,-2.1137350147985,1.55950005954093,-2.09220748759945,-6.46283289449211,-11.0454754903525,1.53815773631395,-0.986985732034117,-0.491476852553183,-0.779308398356646,-6.44416074610036,-13.5183355416713,6.2046054386205
1.4367142968689,-1.52065699311498,-2.60261513118649,-0.827015334966042,2.89956386988944,-1.24538629867275,-5.98582026021476,-3.61923409249482,-1.4548282871121,-2.32216613383618,-0.0913846978118961,1.26073316753843,-8.42170648432057,-12.0038082208095,-0.303069255440776
1.44452252674319,-5.28543262692693,-1.28612674598599,-1.06136595666633,0.997792205269997,-1.13917660333355,-2.80518051640983,-0.522497244140478,1.24790409709276,-0.833007563069731,-0.892693523423964,1.38424781979063,-2.27742801761906,-16.9285719003139,-9.42258133658702
1.45233075661747,-11.2753865024686,-4.67476917629147,-3.55131726920829,-2.94823781544381,-3.68360131599148,-2.52712246434684,-2.39816714074311,7.06895182038607,-0.991888571694762,-4.56941156472474,-1.25169338761827,-0.0413550601033477,-24.1904337014613,-13.7683855510646
1.46013898649176,-15.5911876461149,-8.79985405330563,-4.94161730468497,-5.2094546943348,-4.75548427917202,-4.86737200276847,-2.9644696786612,10.1758506050235,-0.44119792075482,-3.94431881989747,-1.76592126219532,-6.40079049921315,-24.7026292886195,-13.8479877925807
1.46794721636605,-15.8713666698575,-8.62397648219967,-5.25187879264579,-6.08864466244393,-3.99067538596829,-3.85040375249382,-2.25674200799164,11.5671403160221,2.44326121716174,-0.0461370834281986,0.589229146847517,-7.89404086923878,-19.6573316659389,-13.9087101436549
1.47575544624034,-15.4221784374357,-6.03171182994748,-5.06593781173454,-7.25610987240487,-3.55327242232998,-0.132358219790416,-1.58988774563965,12.9289138069278,2.25644214062366,-1.02019437040597,1.78002146900633,-2.5627367363004,-15.6047403420863,-14.7126585460597
1.48356367611462,-16.8731662532926,-4.42770983104611,-3.57263451278434,-6.57752005154305,-0.493056263701517,1.38795355303292,-0.846782632133337,8.88983509446443,-1.63667504878369,-4.36488251771241,-1.10580172120592,-5.04544858789723,-15.4647686089931,-16.763476989358
1.49137190598891,-21.2448865673185,-3.49657989864254,-3.99828940093742,-4.24070898586922,3.82871610306064,1.4841634367228,-0.929297573825689,-0.847280527102338,-3.51737063021985,-4.97677259530335,-7.55849691211244,-15.6349804863958,-20.5389616097865,-22.8182484126979
1.4991801358632,-28.8433591625333,-2.59316064243222,-8.55399232566581,-3.99517718846017,3.10076719902317,1.17090687496666,-0.969632871410223,-5.89384963606535,-3.29244701953259,-5.87509994591981,-11.1387810307648,-20.3926060662298,-25.4618246163783,-29.9338413692408
1.50698836573749,-34.5479490062833,-2.3767621648779,-11.1326985901617,-4.60468141133004,1.12407631061832,-1.79546257512565,-0.511337883731695,-2.87171747778593,-3.53835194201794,-6.29426174248963,-7.03482623874208,-17.8515828118352,-21.1482793893276,-31.1631428218775
1.51479659561177,-33.0218393108487,-2.01911367301846,-7.8772163933538,-3.36708776051217,2.65904337547581,-4.31572577016349,-1.32178593423066,-0.494102979647504,-0.497820664361387,-2.09365873421937,-2.52571197330019,-15.9017661080388,-13.2261154260097,-28.6776787258082
1.52260482548606,-29.2142545482755,-1.59142388229275,-6.09314637840018,-4.56138769680672,-0.657863076703149,-2.23943325536247,-1.77145016934571,-2.02381780241667,6.72518856434497,1.64006132994384,-4.01612826167604,-15.2610238060979,-12.7068540658412,-28.711719176858
1.53041305536035,-31.1698381206632,-4.86290670757199,-11.140002781751,-11.2915975242298,-9.7030250392123,-0.489881363081889,-0.172787196895452,-2.42189123724638,9.19626934437427,0.2946769705841,-5.18146606265566,-14.2466691002874,-13.802215775436,-28.6586605525904
1.53822128523464,-37.4507352611661,-12.0126769674292,-16.1099134033941,-17.7286330848377,-10.1623193583651,-3.0050511028051,-0.153877772352072,-1.50222900007902,3.08000547794971,-0.62458175803929,-3.79228194533846,-14.2823718056707,-11.6520759667812,-27.5112091518336
1.54602951510892,-42.7961713573575,-16.5065105092993,-15.6402345246099,-19.0200359016102,-2.68666118003567,-4.88638016240593,-2.58950877930817,-2.79338123892485,-3.06758945079175,0.449011873347467,-7.66719098865053,-16.4109223351507,-16.9427406396327,-34.5838314510279
1.55383774498321,-48.2359411022306,-16.3644664419165,-16.9916692322515,-18.4099876075428,-2.48134392120083,-4.67553612248893,-4.09725905205903,-5.14254214857756,-4.38151042552319,-3.08905105675965,-16.6987852650788,-23.0362389550237,-28.9997789468227,-51.8105350948268
1.5616459748575,-55.6179219982267,-16.6592643392553,-24.332237774732,-19.3687221198719,-7.0659400782748,-6.08464952962394,-4.73215676095185,-5.78127839659391,-5.43407552333203,-11.448023129361,-23.4133438664581,-33.8055184350042,-33.1879922952113,-65.5715214229518
1.56945420473179,-59.5036985180021,-17.647490276145,-27.5834279602788,-20.0461379676502,-5.24377220489224,-6.87947651402946,-4.3097472264975,-5.30691983793913,-6.70659654231396,-16.9534094819,-24.7660431462433,-38.8992531762151,-30.1194173898158,-65.4308124996119
1.57726243460607,-55.4447347423673,-15.9169881475439,-22.9156308716558,-18.6735088020008,-2.59823339797695,-4.65283295171257,-2.39568877961335,-7.04995801542936,-4.99157493205395,-15.0866435059479,-19.4442410069611,-33.9256394372014,-28.639597138351,-56.619620940774
1.58507066448036,-50.8182393810392,-13.8976438177099,-22.7524743622564,-17.5102950721424,-4.59291570998867,-4.14938303487297,-5.32171965386567,-13.0034439811581,-4.29209964366284,-8.30229168023377,-11.6016230183747,-30.4047940239934,-27.1866304482875,-51.1692425228053
1.59287889435465,-53.4700338146329,-13.7048070562353,-29.0574060028814,-17.7886439948719,-3.45372408248623,-6.20153376119133,-13.083511836788,-17.9055407295102,-7.53413980098096,-3.11393170441895,-12.2008757191803,-33.5206749901799,-26.5284254159389,-52.5262600398951
1.60068712422894,-56.3950750133634,-12.8942477834692,-27.7951608246587,-17.0717803626698,0.0954463519887145,-6.14823051946159,-12.671161182186,-15.2109034309262,-8.26917426677075,-3.04142670716553,-18.0094589787628,-32.1614640221624,-29.0052492227016,-52.4814297176295
1.60849535410322,-51.0878850719571,-13.8001268041601,-20.707159573438,-16.0340053229969,-2.44529884673794,-5.59398981587883,-4.32276011254487,-11.1366694221371,-5.42060773463574,-4.01633315171509,-15.4286408024933,-24.0534813866643,-26.1206152047572,-47.2658764339381
1.61630358397751,-43.1906759044767,-18.6708266866674,-21.6560426300787,-18.1511661201161,-5.60971802093228,-6.84157654302116,-3.87918949868378,-14.5436508903378,-6.7801315078291,-2.63741724576264,-10.2606329518463,-20.9380524621038,-17.5177986230312,-43.7233387447291
1.6241118138518,-37.1153661510587,-18.9929587972631,-23.3205743378423,-19.4535438209217,-2.16665523864468,-4.82873770253654,-9.45321131493744,-17.4745066413754,-9.58952968211499,-2.01512019719391,-12.9596829014923,-23.6700489983587,-15.1572630013881,-40.8351665950709
1.63192004372609,-27.6582624218107,-11.0031936300268,-13.5557303971075,-14.2977592139881,-0.0656804702444856,0.139338072073502,-6.48322296883759,-10.7559807548398,-3.79806177707043,-2.88022022332459,-11.9928774434235,-22.2734768853215,-15.6123630608974,-31.3096863246852
1.63972827360037,-18.5462304851652,-6.65563990001584,-5.50056319892631,-8.93979374462777,-3.54471534110745,0.164047255796237,-0.0939322635143718,-3.86138656233488,5.39080555348071,-1.68423955525666,-2.95599313556215,-17.3521931633977,-10.2099706735072,-23.6434647060328
1.64753650347466,-17.7717391750455,-10.3862474096289,-9.39422946632133,-8.91908852154427,-3.93429654456814,-2.57012769238945,-2.4159929826468,-4.90070273970305,6.44465191273364,0.381811570269769,-2.81420036136171,-16.065705584052,-8.18993016142228,-26.0769478298121
1.65534473334895,-15.0876943370939,-8.95461822872067,-10.3285260742925,-5.38099209362679,0.353958670123022,0.73576185448174,-6.80578614022431,-5.71118667219816,3.56544549374256,0.235097598178094,-9.42519613086244,-15.9973395333318,-11.3832933511195,-23.704078338235
1.66315296322324,1.08937866476771,2.8387787210474,-1.67262833774314,5.26236709063834,2.39266568802158,6.92402223093514,-4.05669403817353,-2.048584009158,4.88693220524463,-0.031167436497504,-3.24346323787233,-10.689671801093,-5.94842024702409,-7.9199267841273
1.67096119309752,19.4626501300692,12.7158882486353,4.42067474663033,11.0959118217785,2.4519756474332,8.25999835474495,0.38330089304748,0.28331158067049,6.28684122471485,1.37832064543456,9.88158945263365,-1.07805709696095,3.87179497819564,6.60234771004384
1.67876942297181,27.1393545368075,12.9740536081324,5.84316009819283,8.48677237933463,3.34890491150181,6.91505387766365,0.12212940495613,0.0434928288585084,4.32463629154834,2.47770399962158,12.6719470423553,7.27367754125316,4.76428155046126,14.905878403098
1.6865776528461,28.9275949695468,9.9249374734888,7.70884270012154,7.09781535571403,2.32366782806675,5.82776025278573,-2.29155159737763,-2.68697598074614,3.41981990246448,1.88403100882263,8.88909963787535,10.5592152609797,3.16843775849959,23.0912135623998
1.69438588272039,30.9244135120272,10.4493715631494,7.01759952842965,8.96570094531364,-0.118944529370863,3.05214670641427,-2.49266482140717,-10.0456431159848,3.73917324452075,-0.320872951405341,5.81310562313536,9.55768747472484,4.45243720155379,24.4566119693822
1.70219411259467,33.4634187915682,13.3831293451319,6.7528409415461,10.0462568611462,0.770089510901373,1.8147994611979,-0.157415009996267,-15.3849184760922,2.77812178043994,-1.18465014185219,3.94582275570372,9.74787969732005,3.78511551957747,20.5680049442357
1.71000234246896,38.5942781665682,14.6784384119043,13.2399677687861,12.1960142464001,3.18581873558323,5.2122078274012,1.1739295646936,-11.9842732200497,3.31073362736377,3.75899810705871,9.31208090008238,14.0418240561457,8.1383798513951,27.381822922141
1.71781057234325,43.8493326404452,14.0765774118433,16.2300638610102,15.1734855980236,1.81836396835605,5.63038257105355,-0.737112112304541,-7.85400703047453,5.09037573246631,9.1195322981903,16.8458667200897,16.5222517981501,17.0832975302281,35.6025432132787
1.72561880221754,42.4580934741854,12.9500868188868,7.9005255156733,13.9317310661632,-1.73378997661312,-0.240370508599239,-2.79592014100251,-9.69349505995451,3.72702629475269,4.11922521506042,9.24526647747496,11.5599362387629,11.0485446844639,26.1846812748021
1.73342703209182,36.674913237369,10.0098335611353,1.59334892570748,9.15366061633414,-2.6351289115115,-1.9015490676641,-2.05267763878998,-11.4386379966611,1.90652437119159,-5.15853624429017,-4.54137202083132,4.38237590932567,-3.12019725698808,16.1597045444555
1.74123526196611,34.9845102527499,7.82319759006595,4.12242645561471,6.19558843081779,-0.717402394787866,3.30265000803475,0.153653933705417,-11.2039244422787,2.96286995319995,-3.28374700631409,-1.21325673638841,2.98247451924999,1.49998883348128,24.0391486667699
1.7490434918404,41.3554094531893,15.3069441186914,5.85874838173165,9.57698234027213,2.58765346191685,4.77301934702401,2.71794413779083,-12.7441380271786,2.72760064510974,6.70484657202453,10.3228326243255,7.35637350225169,14.0875642691197,32.9192927860326
1.75685172171469,53.6740015247225,30.7226879465113,7.90394253074899,20.6057041496593,8.25457269333164,3.2207756374598,5.6523995325357,-11.8700211295956,3.11829311756763,12.2024533263275,12.5178094309662,14.8045298590632,13.3045404348912,34.2699969791478
1.76465995158897,62.0624101856112,37.5396206247339,16.9706167632319,29.7639511436779,14.4171398320035,7.68629268152718,7.39906930182281,-6.44191863630949,10.9021828880754,13.9426514617035,15.7248568934295,23.4100176825495,15.8880613241734,41.8630565189428
1.77246818146326,57.1086557605624,30.3165714609156,22.8016523772456,25.0896766990978,14.324129883273,10.2576351497889,6.4774031564981,-4.99513557051359,17.088864635512,15.6190812102386,23.9240756434295,25.6777884497615,28.3647592459264,48.8271373294896
1.78027641133755,46.2238939502597,22.3491070138941,16.9840940886713,14.1152351707775,6.68142062805454,0.712543818783803,2.82479118559661,-9.52466228102385,9.89266140370044,14.2617642394134,20.7758918207977,17.331246091363,24.3565023336949,40.7856143497533
1.78808464121184,42.5883997180819,20.2968914377222,11.1763319426753,12.0181978554089,0.0719112791852172,-7.20672699468132,-0.827182479163977,-11.7782681236142,0.748008142992586,12.5293337813446,12.361815015683,11.4444739356013,9.53183821778914,31.2329715274877
1.79589287108612,44.1116197803378,18.7029678689966,14.4677614623286,14.9914549202282,0.343828503115576,-0.0512372817277482,1.4219125435144,-10.4696114311093,3.10639197735462,14.1609150878021,16.8965506953094,19.7777144446345,14.5199010763707,31.7157672428197
1.80370110096041,43.9274500110507,18.5249149667749,20.4547285491206,14.4931562752087,4.38745719574253,9.10420039637093,9.35920190069976,-10.4050324210995,6.65407783894214,12.768740367038,21.0107455653045,29.2045294775935,25.7298677359166,30.2268413089818
1.8115093308347,41.967321226871,22.9182808267603,22.9680571013667,15.9090774864513,9.23428422592441,7.92486241800789,13.220853321293,-10.8691742668027,1.34131748585376,6.07503909979553,8.98854116619566,23.5509306921931,16.4597413931431,21.7896007083959
1.81931756070899,34.9896562793612,23.6281139719019,20.4809736663081,19.5644100517589,12.5207212605313,5.58216575129036,8.81164406988922,-10.552636409747,-3.7122968921217,1.11773879442901,-2.52186485110781,10.4279391303035,4.3473904524388,13.0656207584447
1.82712579058327,21.1434629657626,14.9739315378199,11.1172928267695,14.7400892586071,8.45072633407871,7.39428904993538,2.6959261820108,-12.3457424888486,-2.67836444468823,-3.06618266190797,-4.30218787967226,2.0346383585902,5.36058119874617,2.65754971733754
1.83493402045756,10.0558517673373,6.26140760059452,-0.992858181001999,3.19169887011832,-0.527579393164713,5.09221414072518,-0.825203545352789,-15.5671828040951,-2.39377563090649,-11.2515423783234,-11.5461029606964,-4.23260836458485,-0.259317120498209,-9.19398560294444
1.84274225033185,7.87170107153651,4.50743459339237,-6.18758588493095,-3.13505546147042,-2.25935119010647,-0.404347863364177,-1.63591981675324,-15.5208666572446,-5.19752519221631,-17.1044581421784,-21.5391525822785,-10.0121806130437,-15.4031011666713,-14.0449854350978
1.85055048020614,9.57144052771327,3.53065465564823,-2.75172668159232,-3.61746803814584,3.12695891044895,0.00834237380032038,0.705053679683832,-12.2638771781796,-6.64129226298657,-15.0310681351593,-18.1898769932892,-10.2254984841375,-16.2677795495448,-10.6351305461817
1.85835871008042,11.5257242420077,-0.978571487711911,1.55127233803048,-4.12526480251961,3.53118211410801,3.67623904688363,2.38179897520843,-10.4492571601742,-4.91829412074414,-9.89343671883851,-11.5829023915436,-6.75734453058522,-4.14235158819535,-5.08532359370524
1.86616693995471,11.2217214801669,-4.73744942073727,1.87757295906319,-4.87245956951791,-0.630347367302972,2.97557691080574,0.63238137219253,-11.5674345741147,-2.15921752543774,-5.79841737832337,-16.4780335026886,-4.07118706560414,-0.368569334929972,-2.66892900237376
1.873975169829,5.29365904120204,-6.29216076259518,1.1784009391047,-5.34586302334481,-0.732083614842493,0.749967191052479,1.47842978689971,-12.5424053916806,-2.50469915957776,-4.18999915208131,-20.6933979588654,-1.10355727529805,-4.50812598127702,-7.40091767081553
1.88178339970329,-1.88797359677556,-7.6545074117651,2.85820955574288,-6.16417900616341,0.818646255953711,2.55229524118905,6.03034543249908,-11.2401058921689,-4.34413163752881,-5.81941251839905,-14.2070850926544,0.767653895852158,-4.48976965803483,-15.6381021953517
1.88959162957757,-6.62521808358434,-5.86113621120358,5.00833029091134,-5.59682957226449,0.0958307125405486,5.9550319050074,6.05976914618316,-9.40137698744475,1.76882262138996,-4.34173040475159,-8.20867772876283,-0.116462396147659,-2.17487456459382,-18.5775543666773
1.89739985945186,-13.726285149777,0.411266373349185,4.81213850319161,-3.68938461834603,0.901923004610937,6.0648017261744,2.91129516814056,-9.35680987929045,12.3672879448381,2.50387878332824,-7.98379560290834,0.708535148140976,-2.8382602538524,-18.0697418666773
1.90520808932615,-21.3622724315763,3.27950261707401,3.50360912620797,-3.01146499211007,2.5499022641019,3.65566805346016,4.56698893759551,-10.3496201286191,9.42607433705005,2.22813076887817,-8.57583423434755,1.68265409612376,-4.55572029013017,-21.3744446254664
1.91301631920044,-24.7116090557218,-1.86269558792019,1.24566454231515,-4.10280100399667,1.47433382652561,3.27962425692086,6.85526751730743,-10.0302565345639,-4.23130481334057,-8.61484747018128,-12.8869928914215,-4.88868360376637,-6.55944271940568,-27.8988548732691
1.92082454907472,-32.0465242168546,-8.22532965068722,-5.76924329459892,-7.22349039608651,0.537275377734106,4.66404250605111,3.8988058492929,-8.81858470534025,-7.1374460944685,-14.7393525132111,-21.8327545720246,-14.7746136651067,-9.92273159880021,-36.4087254024439
1.92863277894901,-44.4488965770841,-10.6021211278906,-15.4156957215093,-12.1789199500721,-0.156005185024339,2.68704060060982,2.01137911532226,-9.75332858656584,-2.27012269587842,-11.9633362778595,-25.8680023747589,-18.6779015526799,-12.1628105248866,-45.0374104000025
1.9364410088233,-45.4465848705411,-10.9024140966406,-17.3890042847417,-13.9658080726307,-3.07216256477078,-0.51403906600471,5.49727534506622,-11.9053223380917,-6.15138833613721,-10.4790814408234,-22.9161743718292,-18.139378832343,-11.433394631332,-44.663077972024
1.94424923869759,-35.3601705333829,-9.53395725612545,-9.53266387641654,-9.47690025860482,-2.54772871352871,2.09163144571785,8.72301625464263,-9.62600352858244,-8.95176665873852,-8.99317865456849,-20.7904305058624,-15.2434151635198,-10.2360479440151,-35.9858662105494
1.95205746857187,-32.68962495538,-7.29907871608639,-3.5180945938848,-5.18226448589974,1.17377561710636,4.6165366504908,7.41133641455474,-4.12901475523649,0.853692781015962,-2.85880141343384,-21.5438465672638,-9.33098821497243,-10.2909929360805,-33.0894695735865
1.95986569844616,-36.9022390148282,-8.40480495815182,-6.00407128989921,-6.88090435558968,-3.60182612754543,-2.29504009740348,3.35907673094573,-4.83261134718596,6.70217115788135,0.181592117888635,-22.1764492589142,-7.75314836359303,-9.18289490599015,-35.9517399288111
1.96767392832045,-36.4084340831876,-11.1134545934668,-8.77994542777763,-9.88500515515023,-12.2225829920932,-7.76941057698722,2.54942726347747,-10.9179966697568,0.646224032923311,-1.74152295674592,-21.0322060185578,-12.3530104622869,-5.27536388296464,-33.6562668300563
1.97548215819474,-35.2491685649991,-10.5606715810766,-5.816902214887,-8.76108089977914,-8.00490682937344,0.106479774844689,8.90242623541656,-9.89060809706389,-0.336432356551558,-0.716115001695449,-17.5162624913361,-11.8068974480657,-2.68425103086808,-30.7147919155055
1.98329038806902,-37.5164815685392,-9.97585274104977,-4.035403544309,-6.3502451568287,1.35152227066318,7.43121293528084,13.5060009882242,-1.39998831843077,5.64163477329883,1.04627580557556,-15.3086065846588,-6.74039106226247,-5.47569962400773,-33.4288612819606
1.99109861794331,-37.3908712169767,-11.013194812583,-7.94185310065971,-5.93062511974984,-1.14036732532223,2.21024945719246,5.75161599371734,2.32122526074709,4.52071697621021,-0.674584169047171,-16.6674370366242,-8.43583612299245,-7.75896902937272,-31.9250503993922
1.9989068478176,-36.0752050182462,-7.76217867259884,-10.4759183472417,-5.12568394238168,-5.89645355560024,-2.09630462186332,-5.092988021633,0.254776929867877,0.549563687130541,0.404783200366205,-13.6582684117462,-11.3232119545965,-1.0130123700557,-22.4705807186061
2.00671507769189,-37.232011964047,-3.2303896081915,-8.04151349723563,-2.78345028454476,-0.746141966359216,0.919109139275593,-4.8836898877829,0.156935398829593,3.48053343205127,3.87594432745666,-4.49345894633791,-6.62389831400197,8.37528685670516,-16.7717682338648
2.01452330756617,-37.2799970409513,-5.57127357845212,-6.50653463065849,-2.12431077057534,2.59251100204746,-1.20598479764457,1.11841999743286,1.67611977959932,6.07439072041187,3.42375011358947,-1.25837453185579,-2.82138471460622,8.05762843232772,-18.9526840663844
2.02233153744046,-37.3210927745939,-8.48731829051876,-6.71622520148978,-3.99102322155648,-2.32839935638149,-5.95483013646598,3.37297367308441,2.72730610276522,4.21469862370166,6.45029992972106,-2.5575722056534,-2.54972945308965,4.84607724290511,-21.4739204860621
2.03013976731475,-39.973840882504,-5.42629886989499,-3.75580697715507,-5.36801020199471,-3.56046503402432,-1.15968402879234,3.91799973700347,4.51407358552278,4.72186596302661,16.7246815672943,4.47293476284483,2.48322029256541,12.1630313787999,-20.3937355495387
2.03794799718904,-38.0240270397306,-5.60673548107052,-0.102068001630165,-5.17528788143807,0.498082343562048,2.69761851770882,3.31975697729888,3.10647461320223,5.30023844151172,17.730802249057,9.07409910381773,5.4767119421931,19.2336385641637,-18.0905577159815
2.04575622706332,-29.7081949016691,-12.351420177268,-0.562682563664772,-5.29481617504769,0.0695265569523986,-5.59049221532341,-0.189359076282354,-2.08937981222807,0.786225031897157,5.03707809363098,-3.02810033141634,-1.23747547126096,11.1706808004918,-17.5147396541529
2.05356445693761,-24.0437032482267,-15.9844329488745,-1.9242419546865,-7.08907810742074,-3.16992491103848,-10.2155351306676,-0.128872223159643,-1.83447673414885,-1.73379759879437,-1.45402335013657,-10.7131685811188,-3.43836788988393,3.20087174516341,-16.5350176311427
2.0613726868119,-20.2864896556974,-15.471724284934,-0.870031053426125,-9.15247742230111,-2.33616703368862,-0.980023350882488,5.80807589743438,3.62008259202303,1.39155967144641,3.74918622885436,2.12229923428038,5.70098323964793,10.4822757635655,-9.36272301444346
2.06918091668619,-11.4238650104642,-14.3343494070044,1.41423887550607,-7.80484787518197,0.589955810530585,6.08242085917,7.98122548315826,3.76485154534639,2.14664120583209,5.14492196951598,9.33960775555113,11.0697695746394,14.9441774282994,1.0400546573705
2.07698914656048,-3.28219222041372,-8.7349689138403,5.17481512367501,-3.33371702725106,1.85137182853977,2.82271817667489,3.31350063536468,1.12050864602388,-0.696630884126097,1.03260881815643,-2.01252022861502,9.47011537694652,5.56815461259505,6.04731974831289
2.08479737643476,-3.28377488764528,-2.25673903350735,8.43600410759225,-2.069186726157,1.40562934063236,0.562051240038914,0.0435952768117467,3.72212622071566,-0.344612229779631,2.03099770460815,-4.56945033847353,12.1853625311824,3.78988293748519,8.65997348061269
2.09260560630905,-4.08240573617223,-2.74216009502316,7.46292537987008,-3.52493468815499,-0.00152283527095959,3.15636375887398,1.11930566284957,5.64359066392244,1.87219018845233,4.9959504118988,6.96564249218443,16.5513579382868,15.3744810019078,14.438146927268
2.10041383618334,3.79836733130213,-2.23451246147061,7.80069107353463,1.93728311961478,-0.333667155282099,4.84819272501473,2.34464501593414,2.81906983758272,0.731281947180361,2.13026566420287,6.6472754877899,15.7974707617732,18.4102704916539,17.5643924259252
2.10822206605762,16.3708055713534,6.08322070713138,14.5092853957392,12.3552597374279,1.56118947647373,5.4140072201014,2.43243526671234,3.95491216088594,-1.02949254603711,-1.15158205117493,-0.693224628558367,17.1423804297419,13.0102336798253,18.3975509189672
2.11603029593191,22.8037069537997,12.0606033670435,18.1802954131342,14.6949804634411,4.06316644333164,5.50999930841927,2.49848651144805,9.79988739396395,0.306025679990381,1.14476306353301,8.38007215679625,23.2702338232966,16.4075124655308,25.4589656375951
2.1238385258062,21.7545297839999,13.1092188226709,13.9718546324946,11.3334253639538,7.22960406921665,3.546602997613,2.03427826617065,10.7866513481265,1.71216936020526,3.88687152777404,19.4504542750213,23.7264773383113,20.3356187735142,30.9502719425268
2.13164675568049,22.6314008930087,16.8103973733911,12.3969454222895,13.5495413154919,10.3153551258878,2.28216699106698,0.476218454578547,6.89078256989778,0.784114252611727,2.59439248953552,10.9656491679046,16.3905646338435,13.8361127768101,24.7951873325414
2.13945498555477,27.6757486560702,16.7983219491968,14.8888391906001,15.2519834846813,8.17983132980625,3.06383326990609,-1.13652396943268,4.92461845780672,0.141859816223115,0.955972503764337,1.64000181377867,11.5424868597956,12.7010887060704,19.9108851932592
2.14726321542906,26.934736082828,7.00945209140872,11.3869680815913,8.24814685290641,1.8723505177335,2.37601951105599,-1.35966730858979,4.73292515183748,0.399123515769571,1.9569677821228,9.01757196606138,12.6846587195369,22.8652818594517,24.1077006839818
2.15507144530335,18.1904199817538,-0.278185544656758,3.7070760184504,2.76803906863517,0.483915273173254,1.47175005419259,-0.937322862407537,2.84532163049044,-1.60280757041302,2.82754368696899,14.0786004465912,11.8292033209773,25.4876058493199,22.0606425785131
2.16287967517764,11.3574741580844,0.636351691437717,-1.06695109069572,4.89024766391105,4.09483176849644,2.98223665697579,-2.30350733544526,-0.449994946467267,-5.02774159999219,1.43698210631103,4.80193666637877,4.39527340078075,17.7411725912633,11.1800416492528
2.17068790505192,9.81350309637782,0.717688547326083,-4.80691223800407,5.51888163989372,3.84664136551182,2.03520718557839,-4.86000204827485,-1.81751039122282,-4.99697558970776,0.345012258631891,-1.44601156293413,-2.61223332739156,15.2265146170201,7.80368838539785
2.17849613492621,9.54922754553553,-0.667627675580029,-6.43586593330131,3.63736089175529,0.180548910124701,-2.47720858113761,-5.35080099847016,1.40488163138689,-1.90738146396008,1.54918022070617,4.03070596874693,-2.31497405624669,17.9540670309605,12.6578401111669
2.1863043648005,11.308684180057,0.529719220353122,-3.25039082229362,5.23799308245963,0.262462977393072,-2.4141645099401,-3.75330496575532,6.15205881501497,-0.608268667176634,2.90375776205749,10.7871919077728,1.44125766896922,17.3613260183873,15.4751132511205
2.19411259467479,16.4521024921298,1.4950344430933,-2.42834144294486,6.07862218325919,2.95243460319797,2.34002951128487,-2.86875749375519,6.97424957658113,-0.980016637757689,3.24916000281066,15.3648696345184,4.68900556707103,17.7145917807164,18.6062320255346
2.20192082454907,21.6649625995516,4.19417070026493,-4.22694593131767,3.70801337664909,3.17813974998752,2.2428429458857,-3.63719273354706,5.19910166169466,-0.443312812760741,4.58180160437316,20.1606173914764,10.5849005713435,23.5392339621129,24.9533885501928
2.20972905442336,23.8403375842929,10.7160627710352,1.78185791313424,5.22544177478141,1.73397916935245,-2.38293954389091,-5.11269140984711,4.38373229409517,-1.14194994063702,6.1074964514801,20.579419652829,16.1508738532038,28.1390111837926,28.284956314475
2.21753728429765,21.8687074878573,11.5404388772974,9.40392441093697,9.66309054797477,1.26285726211826,-3.00098296658989,-6.17840433861909,2.67311355973543,-3.91584127040234,4.71896428976745,16.2123294276092,12.9298903479548,25.808723250443,26.4018920444555
2.22534551417194,17.7449606159091,4.6016633378992,4.480864947436,8.74342902606315,1.70230156563083,-1.27004190938468,-6.71620560433564,-0.367469812380658,-4.4135920295271,2.41942734633178,14.0938935679291,4.96199150228221,20.3416784201207,21.1227382206029
2.23315374404622,14.6346967914462,0.627819882584567,-4.71695714652763,2.87037738269157,2.11857849739353,-4.34443565862175,-7.91941118981537,-1.62234809492765,-2.67864673228589,2.9516126624176,13.074853460202,1.37639589452464,18.4374444876256,12.9336761020727
2.24096197392051,9.06852133063075,-0.744756860779767,-6.05136209190116,-2.89880506092721,1.84648138664524,-8.18721291081901,-8.9036307409018,-2.09960272406279,-3.59633152575818,3.12659854803771,6.952933828244,-1.6902158499388,18.6843812857213,5.8957093738622
2.2487702037948,-1.45315807076696,-5.54522158031369,-7.1462159699224,-6.3933302550953,1.21433371685306,-5.26621004598136,-7.25796652581391,-3.43183615301786,-6.15433471293774,-1.79053299512177,-0.838451226344317,-9.50813894129079,12.9050729666295,1.60591731301015
2.25657843366909,-8.7057906887174,-8.05727363948727,-13.2541776245855,-6.40218607479745,1.0172285475568,-1.44099291818138,-5.25553704049286,-3.2902684459561,-6.54414289088574,-9.2198927887848,-4.17174430667421,-16.6867020592717,3.04211978059432,-5.21249546775157
2.26438666354337,-10.2640058300138,-6.71015001659298,-17.3094373291753,-5.71299234921151,0.645799104197424,-5.39094206349845,-5.98864842202363,-1.77926781271635,-6.67035453410473,-14.3289454468659,-4.77489586650392,-19.3580620751409,0.90640143495223,-11.6861559368067
2.27219489341766,-13.303111245358,-8.2553603780737,-18.0693307465337,-7.9771024375599,0.570879641993445,-9.5330609943151,-5.94886112954316,0.142115359557285,-7.48143975825635,-15.7379668244293,-4.22881241618654,-18.2355225548772,6.16245440583846,-7.61584486731822
2.28000312329195,-12.1397067806363,-8.65587021236325,-16.068017537,-8.62474838787728,2.55839568756382,-3.9307980205297,-3.18661213662324,5.22242376710237,-5.39160411448804,-11.812410641568,0.559153358349592,-11.1852677330999,10.0167806540074,4.63292346230214
2.28781135316624,0.951665232455698,-3.62929750804806,-7.25455718696342,-4.39164558941537,3.68728453300754,2.23240807993416,-2.62587881829438,10.8782565345889,-2.31455485911694,-2.90293245400696,8.29522184551695,-0.651198194983414,15.203628340775,14.4632571720189
2.29561958304053,12.5685518482089,-1.52068175201321,1.48206443130746,-2.03731648022347,0.557380858881872,-1.03817614572044,-4.5809669568747,9.20861599351229,-3.9430953750166,2.16406769667358,11.4768910807464,4.17480964803416,22.3323457632603,19.2536929630346
2.30342781291481,12.8318689563632,-3.09582330112362,-0.921413565280296,-4.21868387753182,-1.45194071151455,-3.08633967893119,-4.47590542580781,1.71133706475557,-7.94189899058667,-4.2566724308899,5.79738573254088,0.974023295876572,18.3743303213658,19.2665790103978
2.3112360427891,10.6118057468295,-1.91185141925717,-7.84529834449516,-5.39712492520028,1.92088801048557,3.52776292307381,-4.42250443246064,-3.02693584059416,-9.31291930766431,-14.7475941666534,-3.60587223350069,-4.83162956095021,4.91182116609237,13.5263522647924
2.31904427266339,6.84174139288661,-3.27962352161313,-7.95867114722953,-5.02718082958871,3.77527100227634,5.59932521326546,-6.91411972787079,-3.0000205287808,-9.93069617839184,-16.3493607529572,-6.43126436053774,-8.82864599085133,2.18715695481917,7.41783843270009
2.32685250253767,-0.991646458828481,-7.31123901729489,-4.37161689460502,-4.99659458691293,1.02601451061527,-1.14851602571006,-6.73345566537079,-1.31550099943815,-9.91870944590893,-8.76505689706116,0.189482967266828,-7.88811378336232,11.6250961218419,6.44831500282949
2.33466073241196,-2.10699825497869,-2.00518978958035,-3.06608873069511,-2.53181675965005,1.05945736549656,-2.05973407285209,-3.04634619500336,0.300745820058002,-4.02650992961255,-0.751650229202801,7.27798036755064,-3.48762552595418,15.9576166067662,6.57905993691152
2.34246896228625,0.497875998294321,5.02757142658329,-3.66841822326408,0.877327045853798,3.60395127914707,3.71005562288765,-2.15906811501679,2.29040954018892,4.74502212910327,3.7373358717987,8.71214441479185,-3.39758651113789,13.5066783819737,3.10443005791372
2.35027719216054,-8.18072383614782,-3.09227634792233,-6.3781085556768,-1.00723884398156,1.4266056456403,2.38141778452401,-3.1809527948111,6.71153280640902,6.78962070851001,5.2743927947113,9.53776601971129,-8.94588880396168,13.6898858938756,-1.83613159426982
2.35808542203482,-15.4988452694059,-12.8946597707739,-10.8904214447759,-6.52954451138192,-1.11925589658459,-3.16661783711906,-0.817273385784002,11.7512833824283,4.02903802303943,3.80110950384826,11.5177560252045,-12.5140812859563,13.9676816855015,-5.14014556178385
2.36589365190911,-4.71163671227697,-5.27302004222775,-12.4810901230596,-7.206588903014,2.25774461410801,-1.08280285851951,1.89397751543823,12.031911586774,5.24042732624683,1.17786402617187,8.7853837412689,-11.0903723702459,9.530231276566,-4.43011536368663
2.3737018817834,8.60197431830165,7.17111133213138,-7.17040544212089,0.39464994376487,4.59423429153721,4.37810758097176,0.386293582657007,10.1830003013736,6.82053549198779,0.443726491076654,3.66134123028258,-6.65623645639699,6.28936652284285,3.36614737740224
2.38151011165769,13.5746515491366,9.71590732212162,2.71168703377023,9.86861022418327,2.96390372894565,5.1302690838099,-2.09215045716462,11.2061202278263,0.306947927757829,-0.00552975024490998,3.60007957638243,-1.00376556968968,8.4328248892369,15.430012085349
2.38931834153197,19.4820516803622,9.46578048343753,8.37332481682076,10.926732859071,5.23607331894199,4.01188615305428,-1.92491484429535,8.33230802918733,-9.43189208598462,-3.82792573060303,3.32576469601134,-0.466991590025833,8.62290839296004,20.8879760288305
2.39712657140626,19.8075216510653,10.1236507761011,4.39963096916451,3.33666952555961,6.96542483948032,2.74705413324837,-1.03824663903412,-1.1511459598416,-13.3317915687117,-10.3322985657623,-5.76225801288149,-8.44689063883107,-1.76400419134477,12.9501479648656
2.40493480128055,8.45736295965907,7.48548768634891,-1.02985286176429,-0.968050071541603,-3.07332867004116,-0.503901329207378,-1.89138961579499,-3.99057128523527,-12.4302460441145,-16.0315306672028,-17.2298178273346,-14.6909850106267,-18.8148557748256,-1.10654558905894
2.41274303115484,3.13622934607264,5.98902581806278,0.783435171244286,3.02055915301627,-14.2670881114169,-1.74173995511528,-3.56145144250092,3.571124767316,-8.58821265788403,-16.8871329316071,-20.2339367467072,-11.1259615883855,-27.9135515298305,-8.0909849620753
2.42055126102912,6.31810743597743,8.48213313694095,4.3920444899775,7.62857707446403,-9.72785681106289,1.94400886042122,-2.68192101266083,10.1200330009586,1.3706880321947,-8.20549659814149,-13.1589150029328,-2.76659076071065,-21.1859933938442,-3.55807679065997
2.42835949090341,4.43015033987757,10.692299114419,6.29652542412057,10.14487727588,1.85606867454807,5.90597442133431,2.8580732271463,15.6593157997257,13.8625205269304,8.396010111911,2.42542509258726,9.16312379979808,-5.23376103300431,8.28124747505849
2.4361677207777,7.74484522131678,14.9885732995996,13.3882841521479,14.5972889274914,4.44176990173618,7.15497306330208,10.0690684244424,25.6260068168765,20.4243729820696,21.5424649230072,21.6119037073944,27.167879773614,10.7412822638097,23.1506045841283
2.44397595065199,21.587812254703,22.3350269662867,21.5997538024165,18.4559791893322,2.13254076622288,7.4769316051722,13.4733672067911,31.0577618827945,21.7420571556536,23.5509354582855,32.1395526331756,39.3970992102595,20.7231099997105,35.1104777835912
2.45178418052627,22.5834100940585,22.4756653177271,18.5194563323237,16.7562206596691,2.70337564132969,7.69367793543343,11.8945593759805,27.077228282941,21.4866898766008,18.8039643279144,28.5109591883514,33.3922469153376,18.6406495962681,35.7288783573217
2.45959241040056,9.60312921789881,13.6305487024317,8.77825588524117,10.6147878975231,1.64012402675907,7.36024335367684,9.38514661047759,23.1100442161685,16.1351493111101,11.9328791609833,18.4319987696502,18.4214980139704,6.22092608552596,25.6059306644506
2.46740064027485,4.54315264014002,7.32739804859256,4.17626137077584,3.05140098040885,-2.22820609428127,5.93500522120003,9.68833779547515,20.9691273918277,7.58702356724414,2.95828981314391,7.578009168515,8.7836606039973,-4.78408356565812,15.0863517307348
2.47520887014914,1.8869622447848,6.16728042240238,3.2571510726191,-2.64874307209664,-2.45403760291775,3.84871390802865,11.5863432810098,16.6782567253238,7.49726755528125,-2.41638116921693,-1.92512573777696,3.88712330007274,-8.93522711653092,8.95763240090078
2.48301710002342,-8.35270183297399,3.97379706974124,3.37463898002877,-3.63984004551583,-0.308192592041094,4.50505403025155,10.9073052332193,15.1832415809757,15.3606913795916,2.0400816908905,-3.7952545481827,-0.188843296530655,-10.6612131204067,3.96327100029653
2.49082532989771,-12.4768325588346,1.02443312282657,6.09918875038399,-2.87057034069711,-1.6682282052203,7.96732619745736,6.93975972388091,16.6103856315738,15.3674720039812,7.64832086477966,-0.891813357463091,-2.44035856581013,-12.2751657571254,-2.64739926823909
2.498633559772,-12.6183501979947,-1.6081628931036,4.8033313208796,-4.23794356877023,-4.03872841216763,7.19458106501107,2.89218734953704,13.8122021904117,4.24608023075733,1.78342552099914,-6.10260577975771,-4.65767555094044,-14.6803762521205,-12.3271147228175
2.50644178964629,-23.2014753124357,-6.52352787380124,-3.46332245528922,-5.71729532772713,-3.5001453719302,1.16665777904992,0.235137097576288,11.3292948951846,-2.17890946956006,-9.80445699776917,-14.2862896519806,-7.38136606073659,-18.5404474343715,-21.3230854488307
2.51425001952058,-28.7473451397062,-9.33726860408688,-5.77238135993705,-4.79413048321419,-3.08849447585781,-0.865603413748699,-1.58453250672516,14.8153922310001,4.32306797413501,-11.2856076249054,-7.6550721722748,-3.86182122087758,-16.9224674310146,-18.440988204568
2.52205824939486,-14.3940746090055,-2.70063783054257,3.78916687309518,-0.350758799855049,-3.58846538879116,3.01834491236214,-2.02492285515961,15.7898699989444,13.3633054008928,-0.772415168689782,7.69246343792418,7.56291551732738,-5.83773871321061,-2.79307933816249
2.52986647926915,1.44963772085902,9.2739069330225,12.7573131972529,8.3792961448986,-0.934302624241907,4.21348575098519,-0.81253970410523,12.7174288978702,15.5057109108416,9.98907632742614,13.9518504542206,17.7986552252742,4.42871502977034,10.5961268924779
2.53767470914344,6.29452020910975,16.2570469247827,13.264839594958,14.9529846519787,1.99622398994724,1.33478644831185,1.49641918394866,17.2441117515689,14.7719577064959,13.3896300307342,16.8722682398651,21.778755856988,7.89589099031112,14.8148005985326
2.54548293901772,7.70713884619471,15.1415083276758,9.72949833214059,11.7052505821545,-2.31762808181484,0.644244793486638,4.11944722388091,27.6024873008853,15.9392178764788,11.2939059248993,24.0324130457733,21.726078702447,10.6106250677647,13.8197978519506
2.55329116889201,4.16283256796595,8.02080558414554,2.90202087700143,2.7200468391735,-11.1992246470614,1.22321752054696,4.1027340814859,29.3423001518375,13.3150008430925,6.15073842917175,18.3674083155487,13.6855675711604,7.97084883790633,1.94871459236806
2.5610993987663,-8.37060706826452,-4.33965231304074,-10.4322686737798,-6.95229784542733,-15.963070090787,-2.20336648480888,0.49073662612739,19.9431321373111,2.61949427036914,-3.30258803452759,-7.18667932330629,-7.64970187998097,-10.834364136642,-24.0663181758814
2.56890762864059,-21.7432500621915,-18.4295642507544,-24.681057507398,-18.5114490180653,-17.1475583872958,-7.71845861928459,-1.37349785115418,8.13417169953646,-6.82014625163403,-14.6474822052887,-29.5440620976593,-31.7637379632024,-34.0377618874965,-46.4391628719264
2.57671585851487,-29.130298783505,-24.7985484731665,-28.838003689649,-24.3022834449452,-19.5990640483065,-10.0421924258947,-0.170280761978002,0.180010830414905,-6.47858207316723,-18.6876166352203,-34.5602230626251,-41.9416153893499,-40.7819711770473,-50.8678814388209
2.58452408838916,-28.0418206951261,-18.5921886098852,-21.5473390167974,-16.1099206596058,-20.0776368937655,-8.68640133397575,-2.01366306092438,-2.87332990263639,-3.73878686518994,-12.4252150544098,-31.5036415654328,-36.8157532677678,-33.7289850320278,-44.7443348384791
2.59233231826345,-18.946029832089,-8.53870941524411,-11.4627976959966,-5.29480663830453,-14.0057145915194,-5.90528341786857,-4.69314623620209,-4.09145381544767,-6.36666314692822,-6.39943151559144,-24.1225914555695,-24.6688797936467,-26.6337148751674,-35.6691929317408
2.60014054813774,-11.9762374660611,-5.32285429363156,-3.12019544303642,-2.84874645764046,-5.655923064725,-3.49786898152824,-0.378755755683752,-4.54262378309904,-8.35809199900952,-8.65701370324403,-11.005824525943,-10.7402585015325,-20.1292574014125,-24.4600368953639
2.60794877801202,-12.5453120967985,-6.94445730571652,3.46469921409859,-2.07718352371865,-2.02217715598782,-3.36786839025016,4.28976868841949,0.183358137858524,-5.88137691111889,-13.5549891480377,-3.4466696578171,-3.01843492842,-12.9989749993739,-17.2293087459498
2.61575700788631,-12.9092332622648,-6.06238914852047,2.59149402916207,-0.504640334789093,-4.02313011504849,-5.0047783519506,-0.48843104388413,8.41165802384676,-5.35147636027661,-15.3630888947418,-8.62110992251894,-7.43376283502858,-11.9058057870326,-15.2937199092799
2.6235652377606,-11.9845906993985,-2.99915815715695,-5.98212247550712,-2.59768513733559,-6.92166107513149,-4.15507027165885,-5.7311282232016,11.7569682350284,-7.17017047496167,-16.4412920960358,-15.3148321705963,-12.1644871697454,-16.0136558618007,-10.1848632312709
2.63137346763489,-13.5639068386197,-2.20465160732174,-6.96524196326957,-2.43536178166085,-5.87245767928799,-0.0226679410218766,-1.51702750470337,11.9266268959171,-5.51994292826977,-16.7129109391144,-15.0720858174469,-4.64557866907399,-16.4047920312343,-3.24783258059556
2.63918169750917,-12.9600908062101,-4.76640917186642,3.59279627144112,1.82923658793754,-2.55899852134426,1.34737912161355,3.4140326902658,14.9735133400089,-2.45249788852063,-13.2797778138092,-13.8831019002106,3.25652713918407,-15.0360929574428,-3.66254871258074
2.64698992738346,-12.7342788478971,-8.49738956813717,6.11522907554879,0.409598788674538,-2.83753245689114,-2.6492411758184,1.19318460676971,14.0964362373477,-2.05948679538098,-10.2138884552887,-17.6247000294831,-3.50729172086995,-21.6425668801723,-9.66946186789805
2.65479815725775,-21.2367269298673,-10.0692126882544,-6.00794654548393,-4.93132940823251,-5.40342777587612,-6.15151115911003,-1.9560844972342,4.07074425126375,-3.72630851359692,-12.5149128922394,-24.8661617833283,-16.4107945427923,-33.625889023727,-16.7298275447779
2.66260638713204,-30.0124894878507,-9.54918457393551,-16.1121964997076,-7.54302374417001,-4.68720739700039,-6.13937374608512,-2.09263015534577,-4.57222106550871,-9.90278689952222,-16.1129887589386,-31.3526501256134,-23.3403580651311,-39.5284044351039,-26.3845440364772
2.67041461700632,-30.5841275951505,-11.1694905889502,-18.98611884773,-13.9925004630726,-3.71837490417202,-6.66717859761711,-2.64177680756745,-6.87119796370207,-19.3219496497664,-14.9567854889801,-32.9791702824738,-27.5416615471868,-37.3007051553188,-32.8961674190455
2.67822284688061,-30.3087255260587,-13.6702268255224,-21.395054394605,-21.1337405830067,-6.45715349532803,-8.05371185796256,-3.37120533730683,-12.4388230094784,-19.989208866075,-9.02626829232484,-28.840990503421,-30.2522309289007,-31.3180009927211,-27.9869343257838
2.6860310767549,-28.30605905267,-10.7297008169165,-18.4883695191167,-13.8816720634144,-6.63872402526577,-6.09056612508293,-1.62931240346131,-20.7898543128842,-10.6809269675764,-1.01470661546498,-20.2306847172882,-24.9678738579778,-20.6880857552944,-19.0424019313746
2.69383930662919,-19.5127946636319,-5.20678449993039,-8.51334100425468,-1.71867887074166,-2.18300312377651,-2.2068001891851,0.686579160431055,-18.5160258064145,-5.83061521144238,5.55695314322204,-8.16774221240541,-15.1287014946965,-7.25670834440568,-16.97531857261
2.70164753650347,-16.2320606014371,-5.20821215038205,-3.79803424537406,-3.78344623142892,-1.97035973884304,-1.50441762464042,-0.228548862001272,-6.55225398634611,-7.39492480845776,6.32538909826965,0.256985465893537,-11.0634406075506,-2.09975322145799,-18.5607820964747
2.70945576637776,-22.5532418987394,-8.68191410426999,-5.97369056403861,-9.31930367047005,-6.41598003722866,-4.11996647374626,-4.15818119790253,-0.746940041529523,-6.67918412776318,1.33136053000182,-4.81368513881227,-12.0535147652654,-8.91983862776139,-17.5515390850001
2.71726399625205,-23.0296594402433,-10.0184762609472,-4.79063468635307,-4.48184768253976,-6.49306505538662,-6.43758818166252,-5.86331272866425,-3.91463496779142,-7.36981027217236,-3.57001261796265,-16.5198463994171,-9.6751902565984,-16.0950719918666,-13.8596149898463
2.72507222612634,-16.3028089305997,-9.67915226344967,0.485559766886375,-1.13183144623452,-3.1370705924197,-5.96489521520134,-2.17667794968781,-3.57306983565031,-10.4232546577009,-3.58897690858155,-16.7321934300568,-1.66843830576818,-15.4369670953212,-7.15502204665477
2.73288045600063,-11.2048031589628,-6.45332600002194,7.09688228904977,-4.36363426739388,-2.39507311202725,-3.52598020093437,2.2541525289804,2.9816210022098,-3.61163895221081,0.241859268290704,-6.4639944630768,7.00173921727855,-12.3619377221523,-0.110411546319072
2.74068868587491,-4.6571382782102,0.0999122726449919,14.9836954528071,-2.34356311852151,-1.78446787215908,-2.64506718175407,3.93104886267486,6.07629797364534,8.46248562245044,3.15925974760742,-2.66868134318849,10.3571879401179,-13.028663834518,-1.00843586692149
2.7484969157492,-0.946803738796743,1.34518347854709,15.9274610930659,1.83787973826713,0.31749070070545,-3.62593885915275,6.45099448416534,4.63626263047518,7.93336756138477,2.34630508337707,-7.16939683734438,6.22112722539623,-16.4113847817836,-10.0689007259303
2.75630514562349,-9.73275439950231,-5.64515186672116,5.60358614265694,-2.35956946903878,-0.298076663093168,-3.17437001721855,8.67464303229156,4.8159396400577,1.2851224651781,0.519226144892877,-9.26576038180849,-2.1699259147672,-18.9477808083949,-17.3325859523707
2.76411337549777,-18.4030515453458,-10.0459735525122,-3.2483056134008,-6.91949669415169,-2.58981507636746,-2.71763655202385,4.80952834341827,2.35838220025362,3.08904464153919,1.20618791495056,-9.08277602969667,-9.46394948816579,-17.8826353158412,-19.4641777492457
2.77192160537206,-15.8883716365934,-7.71756864910031,-2.61033635795341,-3.25388781124764,-2.38084810592373,-4.49728628652092,0.368881128767161,-8.00124862288176,3.34155852703723,2.63459653769225,-10.7514128285553,-11.6569998726873,-13.3053218926845,-21.5643402553492
2.77972983524635,-14.619873215878,-6.41341568355465,0.146788542864464,-0.528346584681804,-1.11540621139248,-3.46159550206657,3.65134858343902,-16.4674647102231,-4.90136067958203,1.97239823256225,-8.76464315234682,-7.54747800684254,-8.73248167890885,-23.0033909297877
2.78753806512064,-18.1997806331754,-8.53321911220456,0.0278295928217391,-6.51593891674691,-1.1564598045512,0.398681137394948,6.84498595450225,-15.3598692664975,-6.84494607539502,0.803243588549798,-2.0405620384123,-1.5216642037658,-6.51859255689958,-19.060933730691
2.79534629499492,-18.1590844890714,-10.9774043691626,-2.83126025855766,-14.7709409385365,-1.9681275448962,-2.34872528569694,0.792469732502131,-13.1152527580136,-0.87374084086743,1.09586460505218,-0.213748415103167,-0.540118263724258,-6.12173672575334,-13.1168199993067
2.80315452486921,-18.0871469280362,-12.4764087331762,-6.87776904762016,-16.1166783958119,-1.84582918502529,-8.86592861669059,-6.65494061257538,-13.651944423663,-0.745133925393492,3.31168575201721,-2.48296060143968,-3.01803986883443,-5.75138636488298,-9.86869396933848
2.8109627547435,-15.0854722759366,-8.67649055843258,-3.30059700668082,-8.71711460644418,2.60677057884495,-5.74504419820304,-6.19313145425019,-8.73929145430266,-1.19291238875714,9.86535997305602,4.38253502071837,0.81585259580333,-1.07385834116319,-2.5929386235171
2.81877098461779,1.20635778692958,2.31613563175296,9.42462200462594,0.739388188775246,9.75591737411777,3.33922961695199,-1.08537185933289,0.520555106354369,8.89645893482837,20.0310074797699,19.0885215205047,12.0042616858454,9.70325354676864,12.5332101368017
2.82657921449207,13.1264761188388,9.76203082676029,13.4756273680903,3.28442176287956,9.46327764175693,4.44167474253182,2.36541008208099,3.53659984971346,17.8220322838274,25.0076844206879,24.1818023127411,17.4345252051326,17.6934392843785,19.1337569736547
2.83438744436636,0.367595980441538,4.2270557748804,0.825271075365684,-2.12109593445473,-0.383503239528734,-1.32343050496574,1.31289064143005,0.0231247892505066,13.3837044945208,19.8640572539398,15.1460776728485,8.33844442510326,13.7110383902135,4.20736251106923
2.84219567424065,-17.8477021953702,-7.23352075939084,-10.997593457105,-8.86720863873177,-8.01350420333584,-5.98448463933464,-2.69371557976899,-2.94638636206327,4.72513849644336,12.4628283492157,5.20825485409239,-5.70569591379445,2.79798678498885,-15.0688330150538
2.85000390411494,-21.2284852764249,-12.0746514928808,-10.1505570954107,-11.7493936210316,-7.6645638308688,-7.38002153890129,-1.70192671563325,-3.11918213461577,1.82581503300342,9.91005773459167,1.76590017498472,-10.0629408822088,-5.26217146772721,-19.1239153362208
2.85781213398922,-20.9823419353605,-8.40227342967892,-5.42477994621024,-10.9806033759754,-5.17857855178555,-3.24748536603447,7.15580701086822,-0.626348162638531,1.80162186531696,7.82016057882995,0.110557000050337,-5.84027128076833,-9.28673621076921,-18.9073473430567
2.86562036386351,-25.1689130565763,-5.33039690380002,-5.99508004844413,-11.2147819190662,-4.15618151046475,2.57465222818856,12.7711052820474,2.07052907849611,0.692908238455385,1.58172674093932,-3.80616398631594,-6.41087941980641,-11.7153141107021,-28.8022762752467
2.8734285937378,-26.9747659465909,-9.22981048946286,-11.3127484864019,-15.4837829261463,-4.64997833587368,-0.757831003832774,7.74212025854888,-0.727273250567303,-0.645932126954466,-4.2917967328003,-8.80947061358949,-14.7901337609319,-13.6609785165248,-36.6636158443385
2.88123682361209,-24.8097268840909,-11.5181653631201,-14.2142367905401,-17.0924350410145,-5.90256803847988,-8.13129326360221,0.319883905389933,-6.89264562224089,-0.489521373227507,-3.52667551125794,-9.93261190234682,-17.5398877129583,-15.0661899651943,-30.0986210323268
2.88904505348637,-17.4653608104825,-2.48415972118283,-7.06601339042411,-7.57453886562997,-2.97951382018765,-4.79595848577018,-2.5529010369986,-7.78143813704191,0.928659807726473,3.99424810324401,-2.13939245521089,-6.20388011789601,-11.46569367308,-19.2022425151759
2.89685328336066,-5.5226383707166,7.98502658481693,4.37048096000924,6.50986512606925,5.00750810287754,3.22779873354439,-4.16886997964081,-5.45586755369841,1.21510357765827,11.0110089293549,8.96354059399107,7.34748048925121,-1.8245230223594,-14.1958471752101
2.90466151323495,-2.21540312978032,7.62908862705326,5.55868238746896,10.1993101448376,10.0260723271207,3.71332958681588,-5.65913487221894,-8.10078551863371,-0.345659066155821,7.13504810248107,9.66941408337095,7.01699800634105,2.19641069512984,-13.0099340892726
2.91246974310924,-12.1800662777067,4.19161056156253,-2.86130028426872,1.93839391177482,9.2067363896207,3.23399761660103,-4.20308686043915,-12.2482788810605,-2.87273280711499,-7.48061971749573,-1.66892013429663,-5.80660896158498,-6.05221339125016,-16.3169542766505
2.92027797298352,-22.1856862804532,4.01041720981693,-9.54380279243217,-6.27740494305306,6.5334923901395,4.37793782694344,-1.83991182591614,-11.288681293475,-8.09858863444653,-17.3858187683991,-13.3061785298493,-18.2107708916692,-14.8632251824794,-26.1869083858424
2.92808620285781,-27.0845128795743,-1.64703942661191,-13.6874290055059,-7.30104462200814,1.41516942165653,-3.25342771069999,-1.88510871674714,-9.57829120253264,-14.0459362754377,-13.5761960038117,-18.5736240941193,-23.7908127770452,-16.250530442184,-34.7441307521754
2.9358944327321,-30.1651193401456,-9.77320457820797,-17.6067338532232,-5.49490086132699,-4.14282625533779,-12.407258954215,-2.36458588387665,-10.4752724418515,-12.3786217460188,-6.64787845696717,-18.4055618840363,-23.5251648888616,-16.5217372979579,-35.0926338649684
2.94370266260639,-28.4590017101407,-6.24504400615597,-17.2835584229253,-6.42105547482186,-1.7854339442416,-6.93200251119133,-0.89467454697785,-8.8612072715634,-4.50438897700635,-5.62854223336487,-15.0741228657868,-20.2319119439153,-16.9471294488368,-32.9267555690699
2.95151089248067,-24.2725240490079,2.93582819576358,-14.3835321015142,-7.86645905071908,5.85750323913853,3.14333561403756,0.605327181556849,-6.25726201628386,-2.34916775317517,-5.989900875943,-14.4504494267609,-19.9435742363958,-14.1489097680507,-34.2085548854762
2.95931912235496,-23.1506368419767,3.41975401516056,-14.1094346588872,-4.529995360915,8.25863439224521,1.25675121290688,-0.590857870838018,-10.8423216590756,-6.22373693080273,-5.92633371438294,-18.4955639439728,-24.5033791527776,-13.2049495782314,-33.7537170864039
2.96712735222925,-18.0432483455777,1.10273192997074,-13.4571519440435,2.49563678210563,7.3563044705228,-4.12669559972282,-4.78783036019501,-19.3076689491147,-6.81660668940869,-7.53828792657166,-18.2118630009796,-23.9152901635198,-15.1914188470302,-26.0509163356715
2.97493558210354,-6.01950471612218,4.94190953846073,-10.3795552796148,7.51198466723747,9.00369722030918,-2.05720063703056,-10.5814271047324,-22.116977954852,-5.22363011927929,-6.35958032693177,-11.6596474248078,-14.0903828606633,-13.0256492700038,-16.615904471963
2.98274381197782,2.16590292242762,8.7526028024683,-8.21854596793876,8.78572734301872,8.74745446823398,0.0157574896336029,-15.1398129537314,-21.7549002418393,-6.56578652949658,-4.09426169480591,-10.3053364354279,-8.66785888529103,-10.004005631393,-11.9175201869898
2.99055204185211,5.84668237951991,9.0183794366846,-4.93733745277152,8.78798850482291,5.31114322326938,-2.99567576901908,-14.5886626317709,-23.6923582801694,-8.09857146830884,-10.6687224396637,-14.4304298955109,-13.066362665656,-11.8089534844814,-7.97200503119761
2.9983602717264,11.8283746936679,10.3226530420313,0.390846317408226,8.97383864825553,5.17617255829136,-4.22573896901603,-8.23654413964448,-22.1689265022153,-8.33147780986157,-19.0943587311676,-12.2204365330841,-12.3764136300115,-9.87728520292619,-1.65929772624308
3.00616850160069,13.8040464618563,10.8962309228907,0.318862741587303,8.59582313006706,7.27587443970005,-0.781408336329418,-0.991712935230108,-13.5429346809262,-8.02629535289136,-14.1473362931183,-5.72480746089479,-2.00140614962857,-2.4959693755565,-0.0613693214350386
3.01397673147497,7.01322347906825,7.16562722797489,-4.54890256583915,6.73714526599235,6.31108171127598,3.6464553211451,3.54390811178985,-5.15627505873381,-3.01758759112683,-4.24265556420594,-4.78085919200441,3.71226616048534,-3.27829810041764,-4.90117885836894
3.02178496134926,0.843560049807993,3.54199575061893,-3.74201660812125,5.01171811526603,5.00230199478428,7.20624164087777,8.1787781641275,0.264350270283832,5.77175886540088,-2.96747236336976,-5.27317877589723,1.46639652394969,-9.97221299070695,-6.77547898062998
3.02959319122355,0.999049971377818,4.66283296222782,2.8987264090754,6.5486019462902,6.56678039215366,9.13244727594857,13.7135205194742,6.81930611039461,10.0137484779802,-1.32132892693787,-0.67142887889406,1.68364758634288,-6.28037997145036,-4.39149656066233
3.03740142109784,4.29144556311366,9.1862547266016,7.60134739219918,9.78446277087516,8.04619008682529,8.57449439508919,14.0382780954629,10.6349789848453,9.71255428700122,5.3712903967926,3.39935449779967,4.47265310430248,3.39170292955062,-5.68186893233592
3.04520965097212,7.43376714972254,13.2527124750147,9.30403465568795,9.90141089862174,7.67246371887485,7.10453704340462,7.05808114264312,5.1260015716678,9.05121261982593,3.31962652121276,1.59122375668028,2.85954637670238,3.51597861390731,-9.75822081336314
3.05301788084641,7.94568331030604,14.5175058710108,8.96944183647408,8.42846663897819,6.93089944504062,6.27010301096444,-1.13012064244446,-5.80519034956633,3.69416744618091,-6.55893640603333,-2.79378350554964,-1.45810967839043,-2.07631750959733,-10.6475941158229
3.0608261107207,9.56067545202967,15.6090805398951,6.87228912651315,10.1324032158214,6.86889297149937,4.99032786829476,-7.02558804299531,-15.1101582298154,-6.06223456950512,-9.23990278329163,-4.5544268685486,-3.02841667986195,-2.03020622391084,-7.95992531546885
3.06863434059499,18.0492628314852,18.9681579935083,7.17585129081979,12.3228567451794,7.65228778503696,2.67754319651131,-11.1570820882529,-19.8671610603207,-9.64136474223462,-6.92937831963807,-1.71483213930389,-0.928690598967483,1.85355500322005,-1.63936021098429
3.07644257046927,23.3499239185214,18.3950703012476,8.94315475761666,10.447069010194,7.71661454819004,1.07628295166497,-10.8477253987997,-17.4134180793637,-6.68019120784131,-7.54526739205628,1.00891880215147,1.33267111921031,3.03563622575423,4.9936326526708
3.08425080034356,14.4477365711093,9.7734482156763,5.57132143318429,6.85496552890128,5.52942544601719,1.35524073584084,-5.09168577935395,-9.58189609144865,-6.51707761378613,-6.0385921486786,-2.58088006555101,-0.687381909850052,0.630101719910116,2.58534083595937
3.09205903021785,3.8345187404513,1.36930023307895,-0.148811156155922,2.93912847941703,2.47927290581028,2.49334100229744,0.322139389851717,-4.20868756865202,-8.08013599009839,-2.93391685570985,-8.16626449405214,-4.79313735819142,-3.05175848860124,-6.79965295562083
3.09986726009214,1.50103504446742,-3.5044202936163,-3.56713872611747,-4.92035500103646,-1.60977965213497,3.24003270609383,1.5942256376535,-3.33009817694365,-6.64518706889477,-6.04358987893372,-11.0035528737213,-7.23661737299245,-8.49877234358171,-13.2211672283106
3.10767548996642,-4.72774749013189,-12.4286582601538,-10.6599221771978,-14.3339816718739,-7.85985105849941,3.23948243601326,1.1581915542871,-3.51745488737761,-6.85434930415478,-10.4549944886139,-19.0331387120392,-14.8291781411199,-19.8567716683803,-20.3794170833522
3.11548371984071,-13.515607049191,-19.1348827016821,-18.4366384094976,-15.6070472388905,-9.72353189803799,2.80140832407479,1.38474868986907,-4.72964789961515,-8.7751757392439,-9.26896696175843,-29.5949043828156,-26.5356286034612,-30.2465498055873,-27.3772579646998
3.123291949715,-3.67151439698938,-7.61914039974118,-11.4347072190069,-5.45607773358041,-1.41005843497952,3.65185407145028,2.70477747175994,-4.62007548903166,-3.5503644237074,-7.29257659997254,-20.4419369298126,-20.3945172295598,-20.3400899972377,-14.9845520473414
3.13110017958929,21.2780531146884,12.6768944131861,4.79599327385201,8.06776603167838,7.62323552749912,6.39395621759896,3.11928271506133,-0.142833734499799,5.21116859821948,-6.77335910882264,6.4018502634857,4.55354948186595,5.40067891221663,13.00417361489
3.13890840946357,36.4390543201327,18.3853828775415,8.53183883964791,16.2455070823986,6.7889478840665,6.39268783075814,-2.69818497445283,-0.505059028612958,2.50811774639758,-6.18664865578919,16.4954543513153,14.4098422064753,14.9006803427281,26.4139235996312
3.14671663933786,41.2244508960604,14.3810455667505,3.62437767326607,19.2293823570568,2.2971494831876,0.579042467904133,-13.7689070775717,-12.5611651191586,-9.74241035075513,-9.29091863717347,3.49048570812681,3.77122326039989,5.30933360200545,26.871984817893
3.15452486921215,51.9415605762362,18.9342472421656,9.5156902724482,21.2300270408947,2.55553752563755,-4.0258326198339,-18.8401904180258,-21.6400282630795,-12.6308371314558,-12.6888869294098,0.421226064572126,7.27640123510082,7.68411425691268,39.8422626041478
3.16233309908644,63.3325517871737,23.7494976388941,20.9391626769282,20.5780552238781,3.50413948677341,-1.42435904996391,-13.4988570287436,-15.729542041766,-2.30963342280713,-6.93721132363587,15.2509513300751,26.1928278937312,22.0029695425572,55.5474856876439
3.17014132896072,58.2215250232577,13.9423048364649,20.4009813719965,14.0453918785412,1.84284907959263,2.08688441259865,-6.75620604302582,-6.92444017027556,4.18699295429859,1.54385204230041,18.6925406855438,25.8856436743708,19.0653474722447,49.6156047367162
3.17794955883501,39.2877176502108,1.34061215992069,10.5664810591914,6.58162291949577,2.3681944050626,1.96596625788216,-2.80547714974579,-5.74773528670012,-0.177809585050017,0.284499358279413,3.13823370159605,7.93901987218578,1.81894187074325,31.0114596866674
3.1857577887093,23.015094588077,-0.193342549847608,4.51839680015816,3.96381410067863,5.88673097275059,4.65041831476693,3.56579994414153,-4.27210357283293,-2.58606379123059,-6.37913589562684,-6.72369476138613,2.05838508748729,-5.37919851202348,17.2001212619848
3.19356601858359,15.6291387775302,1.1364819871912,5.25382990181222,3.73512013858146,8.21175462387363,11.1442919109583,11.2880539819986,2.62424323464693,2.54520804791126,-8.91616754617005,-1.74448328568599,7.16706152105052,-3.09666164774278,8.81037459603017
3.20137424845787,12.9306486347079,-0.688867179798131,7.99137825310006,3.44314845507926,9.1711147465543,12.8985081051112,13.5161890909463,8.37907478715242,5.32011015324268,-5.87161092843323,3.8208709162567,7.98105688237865,-0.631644209807902,8.27790675392812
3.20918247833216,13.0125578143954,-0.208141816901212,7.89507717430367,3.96124728625602,8.61026174209873,8.8621387813807,10.5961327478677,8.98731586839022,3.95135290531787,2.32504911337585,5.24207071484068,11.0085608496638,6.0138943586888,16.3600162052221
3.21699070820645,16.8424967029452,-0.55413824145699,5.09292740165963,2.72847517436332,3.45903569839756,5.28947785837655,7.14224099371734,6.3471576919681,6.21733457951221,9.25163812552184,8.79610017956236,20.0927512183161,14.4075696859898,22.0288795017309
3.22479893808074,23.0370195606112,-4.96829964046383,3.99956745445504,0.0176678509075092,-2.23063057281216,3.10632065279488,3.45277308676544,2.405029272092,8.65651829151782,4.20759839926452,12.0243850153778,21.7413603796931,15.2449644003453,23.4026301883764
3.23260716795502,27.7145364978671,-4.0516729486456,3.35675234138741,1.5309336990673,-1.15125172950466,1.38185385210518,-1.55286074425873,-1.58162238691984,4.2663191071001,-6.23971777047425,10.9771333140228,13.947930051324,11.8987615500035,26.4478629612035
3.24041539782931,27.0565012195468,0.98931430454349,-0.519803637864449,3.74404080813712,0.875354591830176,1.92498174650673,-5.5655336454123,-4.28406598662077,0.10503839684996,-5.14443187798768,12.0855718058441,9.76538152837474,12.077220717484,25.6697257541723
3.2482236277036,22.5831030109286,-2.52471782092953,-1.1909668935625,-0.177980789486702,-4.65885370589932,3.63665131075386,-4.53037834908661,-3.82957151030241,1.74141235260639,3.87258739386291,17.5607810419891,12.1559845938655,14.9919908438267,19.9739726566381
3.25603185757789,20.4151437976718,-7.8669474256506,4.54694170295968,-2.2748057037037,-8.47412794448574,4.22712234003548,1.55431281779113,-0.832598949419842,0.974526416346163,3.78243036184997,16.6740012568329,12.3382975592585,15.9445283804478,17.859720566184
3.26384008745217,17.7475984790682,-3.15213586215878,4.2680415564753,2.09601005023307,-1.52752297736843,4.33735993845467,5.65112017844024,-0.886509920107709,-4.25219171138135,-5.92905931557923,4.96453003109434,5.91579837941844,10.2639501486363,13.382030823142
3.27164831732646,5.96234209326502,-0.141611648844724,-4.73113613784538,-0.309668698851402,3.81503469131748,3.53226235849862,3.29454063628021,-3.9226439247006,-4.83836762996045,-11.1671002396515,-4.88376708804628,-1.42829694009106,1.40548996072432,2.44995818367666
3.27945654720075,-5.91926067086461,-5.57401777629757,-6.86830907523856,-9.3770515113514,-0.260802503602106,1.35853425009255,0.687588624694971,-1.15875806902586,-0.66558300347653,-4.58379631127625,-1.12048174916765,-1.32685412621777,2.61066321473739,3.55287394753164
3.28726477707504,-3.22202517601255,-4.43708015804196,-1.67170381009803,-6.85473171765023,-0.034771498219568,0.014207098317189,1.44143771384063,5.02097341920198,1.10951722769412,6.37549276266784,10.3716493052337,3.94948215627391,12.8157422934117,17.6996043705053
3.29507300694932,1.19207699087855,1.90409849758243,-4.20986681640372,2.56581552928275,6.93759471557896,-1.51944860475059,-1.08535791184601,2.87339899445833,2.13715655712757,9.818373393161,15.3080706995819,3.43230695867259,14.5430391226353,17.7403968357152
3.30288123682361,-9.39701001855138,-2.59038759593869,-9.93170409858451,-0.635999207888181,4.42103320740024,-4.90302225606437,-6.15440750863251,-0.934112215983258,7.20164663700733,8.51784486685485,11.596805135617,-1.30222450351994,9.15281943421981,4.07199845543569
3.3106894666979,-18.999252488339,-9.26484753017331,-4.44965677917228,-7.69246689373666,-4.81429832793911,-4.60843082921501,-4.56904316689667,6.55467531586946,14.3254941215959,16.0324627867767,10.9504313868378,2.92101736211498,13.7030380163731,3.62949166527456
3.31849769657219,-12.6652032634855,-4.65689302806759,4.67093939125314,-2.55076817566567,-2.88377540923794,1.76154640657906,-0.374592550060125,13.0138747444278,18.7048066368547,27.3069226256439,17.1762366694305,13.2308842673274,23.0985734854283,14.156854965598
3.32630592644647,-6.43798606606725,-2.09368051414395,3.96928829490914,1.86892660563773,5.56542998932163,6.04573157770638,-2.61940789963898,5.03530475999178,15.7022984734026,23.4239785185882,18.098514119992,12.9793087973567,20.2018812094273,15.3505672000951
3.33411415632076,-10.9384457370878,-10.4431436193457,-2.47172337234245,-5.8116013198536,5.62878352783481,5.19934609873299,-4.23979283120331,-2.58367588614164,5.24809677509937,9.41014547262878,8.71678117931822,2.2002443804713,8.06440619569442,9.40715918770498
3.34192238619505,-17.5107013485074,-16.413923038291,-7.81077390372977,-12.3705350547474,1.24229807041447,5.48236993296151,0.171054353976277,0.718310674083843,-2.79542939753857,5.19697971258849,0.852978507885725,-5.38358549928944,-1.38786316472867,3.77681622734731
3.34973061606934,-25.3701288005948,-16.0794789922705,-12.4780602997564,-12.9008514075916,-1.22480600692471,6.53299716455941,0.749045841434626,2.23483774567903,-1.89720933528271,6.91355485830993,-0.525547822108477,-8.27577714777272,-5.06208868879655,-4.66781093844706
3.35753884594362,-32.9619981548429,-17.2944953573217,-14.6977000778936,-16.8616878181141,-5.64039343215664,3.22261074526314,-2.49292827393708,0.654915822101249,0.367285605355829,2.8978275767395,-2.58336402951738,-11.0913937554387,-2.23678239244798,-9.38670506247813
3.36534707581791,-28.2187234661222,-17.5683639181128,-13.1507993286871,-19.1678420692127,-8.37846010543545,-0.917890038657146,1.30491387102905,8.35120556260408,0.525300632998079,4.22924823675842,-2.13565294920465,-7.76023750162404,4.36445550065658,-1.76231934794718
3.3731553056922,-16.3680755397916,-12.5642850530615,-10.3690877503179,-10.5884944587391,-3.58094304420193,-0.0735764767407944,6.63944434378448,18.3912636985904,6.87618286518726,17.926883410556,9.38111261547545,4.98229236745555,8.36267165284774,8.45606551399892
3.38096353556649,-11.8093406459928,-5.78036667232419,-4.85355716407523,-0.589829185549553,-0.377081226484377,3.71257737619881,4.37251614783111,17.9985844841129,17.8846963158098,26.8353650084564,23.3632426661346,16.9861895575495,13.1906755362096,13.123916962058
3.38877176544077,-6.82494418832067,0.205572830391879,4.64145654976144,1.44724615519828,-5.78869360305508,5.86793282969002,3.23455380652252,15.8909175148136,22.1706612816301,24.6085717192718,27.1298709315155,23.0215918555232,24.1904142294469,20.2123874210424
3.39657999531506,4.99769861487147,2.7072062360773,12.1738972121455,1.53414662783927,-9.97313230849941,5.31062081797127,6.56340741370025,19.2246396293765,20.0703919640032,25.0244862547943,24.3834720057342,28.6379591956111,31.1258848105015,30.7223971866674
3.40438822518935,10.0606659152865,0.0418584811220122,15.2486395293452,3.94771655505485,-5.50366752959927,4.3446598385096,3.75744055960479,15.9966037025577,16.3561642876116,25.8500496855804,20.8967795771454,32.3560263648005,24.0924623404088,33.5515712284154
3.41219645506364,6.46742040899989,-1.73799027328396,17.6718592101313,5.03420861666984,1.48379511020939,5.79145577890877,-2.11336041238007,2.87363335992159,7.0120294800249,13.6062447539398,13.8942637842987,27.4494387640925,12.1476724539342,27.6962569736547
3.42000468493792,3.75372679022547,-2.06338716869259,17.703801577685,3.81014331286735,4.35197812698643,7.30044940454964,-1.25469363476929,-4.81114318464933,-4.09398667903271,-1.1008872875145,5.84916023434141,18.1359412207576,7.52411345582625,21.2423747562475
3.42781291481221,-2.98009072753194,-8.94606853847409,11.5921301299311,1.43840058749503,3.6842663922147,4.75124028666024,-0.157211013099523,0.404173528206958,-3.56712143512097,-0.806565683907116,2.5106788081024,10.9349362387629,8.08866480928084,13.988418915183
3.4356211446865,-14.9099294445157,-17.0399692190161,3.38227648079171,-2.33115057045632,3.33499986313145,2.08774808390145,-1.67763579632935,9.67855713273348,4.86854011921558,4.91506357107848,-0.278189857592791,2.3620023264857,4.33496121507308,2.65418181648916
3.44342937456079,-21.0832387706876,-15.8827827108374,-2.93249064147697,-6.74581877285653,3.70562106750767,3.66554239733223,4.15971087668243,14.2472073784,5.35270769505176,1.70163555060119,-6.02646680652162,-7.86780004358571,-5.24679251570085,-7.01969828376109
3.45123760443507,-25.1624547741056,-14.0021255147924,-8.26887851417289,-10.6332646995228,-0.498221721427042,3.42041781885628,12.2062792703897,13.5181557884342,-0.329168189481169,-2.29351096238404,-7.63151450931093,-11.2894633278875,-9.75140877622941,-9.51557650336558
3.45904583430936,-32.4282342693448,-18.3307044637671,-9.46358638465629,-11.6915513663929,-9.60204141952236,-1.43772145764823,10.3531308100015,12.804505085004,1.33375449089679,2.25189537916869,-1.45264380156061,-6.10784654474538,-1.42309378642419,-8.77258553275401
3.46685406418365,-27.8682863018155,-15.6056888235083,-1.46607398450599,-6.18083969647103,-13.4497434458896,-1.97657152669426,7.96631907675567,18.1232449760562,11.7863524666277,10.6607119551727,8.08693556011656,3.73845882558543,11.0344703589024,-5.58211865195567
3.47466229405794,-7.28563301774267,-1.09494162921811,11.8059610778071,3.44014295047111,-7.50642412521084,3.59101251108651,13.5936045572549,27.928920482648,23.2687924614397,20.5600277892181,20.4071784418915,19.5565325751277,19.4732759390416,7.86085829964345
3.48247052393222,11.1398828723788,10.5775949823389,21.6084665709712,9.89024241870231,-0.253688745127517,5.84157708628182,14.8874669000894,33.2684361686832,29.4762624016252,30.5481545439789,34.0954814356659,37.2886778845759,28.6264837179722,27.7864078067846
3.49027875380651,19.3798235156893,12.2079527246485,24.2526564055659,12.9793699592907,2.70839649818699,4.10746291620736,8.02926205847564,28.5469243278629,26.1645749321428,29.8010613432953,37.6149249476288,42.1424338355036,35.1418836508336,34.9313701175756
3.4980869836808,19.2535398700595,9.21157096500492,19.9044546538569,15.2876537651379,4.32907516144077,4.56839374048714,3.92567896101776,15.9421031227237,14.9731763115374,16.0096814147064,24.9998031061981,29.6749732031794,26.87157610994,24.0671561740941
3.50589521355509,9.44324857977626,6.03607867832279,10.3264669829585,12.7249353737194,6.16810733459751,3.92279723627572,1.13350843642059,1.58073339368166,3.58968861012134,3.38671846304626,8.86982397259215,13.3883320822688,12.2658069525304,12.0759194873876
3.51370344342937,0.260243485248057,4.51121400470829,1.57051486313119,5.05163463061637,7.0934837498502,-0.890272226500469,-4.38264704491791,-6.14466264342009,-2.51084058375683,-1.14003067101746,2.43996385754088,5.46270628118236,9.70879630189559,8.59454283943838
3.52151167330366,1.45758421210047,1.99199436779117,-0.752596998813011,0.249580046590035,6.0207560696439,-1.57126196877952,-1.82340408112702,-1.30591752623259,-0.922727156594664,-2.30654590214997,2.71116689861754,5.26738233709056,13.0952737722935,6.45649657478994
3.52931990317795,-0.438910891735586,-5.62561107997799,-0.774020755889275,-0.872741141859825,1.34876555584232,3.89837220652108,9.77057599280181,10.1580559959537,6.84456379322681,-0.761689961062962,1.08259276569822,4.23221321248729,7.63898734193465,1.34697804680532
3.53712813305224,-11.9557267925382,-11.6363666189184,-6.31416278541312,-3.84159485394173,-5.24491995193203,3.70467022402291,13.3563446924478,14.7954365959293,9.6689446678606,0.55934662733764,-3.43763693152925,-3.93664150095265,-0.815511068290263,-4.16981371411616
3.54493636292652,-16.1750356456876,-8.40160681133175,-13.7321725434087,-6.20400110775643,-9.48893373824795,-4.90520712392326,5.85561846945587,10.4100653877384,0.735588561579317,-5.51817159737855,-7.0071434575226,-13.3316386208562,-2.58601393360475,-8.92852892646128
3.55274459280081,-11.3994962474943,-3.9805641305914,-13.2650523728155,-4.55342332417184,-11.2545282206698,-9.57949444310661,1.08351629231277,8.54236528779329,-6.18285768122998,-10.8619549759796,-7.29918857394716,-14.0437233910589,-2.19811846870759,-10.9770485378199
3.5605528226751,-13.0048972866178,-6.00253034953976,-7.14831357658134,-3.34234110409432,-11.2663671336337,-6.93000933187004,1.54484092448059,12.9935071220523,0.511602740570635,-3.68488221253663,-5.84689994632265,-10.2966855034856,-3.84538741964677,-9.34957566031748
